File: Raman_data/HDPE.csv
203.235,0.275482
211.846,0.217579
220.458,0.183456
229.07,0.159815
237.682,0.188697
246.293,0.117068
254.905,0.119197
263.517,0.102128
272.129,0.0869976
280.74,0.0659647
289.352,0.0531156
297.964,0.0884844
306.576,0.10759
315.187,0.0321841
323.799,0.0989429
332.411,0.045056
341.023,0.0707027
349.634,0.0852973
358.246,0.081491
366.858,0.121234
375.469,0.0657336
384.081,0.100681
392.693,0.0632571
401.305,0.107853
409.916,0.0669997
418.528,0.0730904
427.14,0.0886928
435.752,0.0800106
444.363,0.0472231
452.975,0.0803436
461.587,0.0785455
470.199,0.0886929
478.81,0.0674707
487.422,0.0776243
496.034,0.0492298
504.646,0.0659488
513.257,0.0769749
521.869,0.0773729
530.481,0.0882726
539.093,0.102914
547.704,0.0648533
556.316,0.095923
564.928,0.0620148
573.54,0.0625902
582.151,0.0411887
590.763,0.0334524
599.375,0.049686
607.987,0.038971
616.598,0.0307792
625.21,0.0296471
633.822,0.0448989
642.434,0.0620255
651.045,0.0821929
659.657,0.0328555
668.269,0.0427585
676.88,0.0437647
685.492,0.0111389
694.104,0.0593638
702.716,0.0386292
711.327,0.0597966
719.939,0.0658602
728.551,0.1005
737.163,0.0911705
745.774,0.0546036
754.386,0.059232
762.998,0.0816005
771.61,0.0990385
780.221,0.0241686
788.833,0.0732244
797.445,0.116483
806.057,0.0638037
814.668,0.0716123
823.28,0.0742096
831.892,0.114831
840.504,0.122525
849.115,0.121563
857.727,0.126966
866.339,0.141358
874.951,0.161446
883.562,0.144374
892.174,0.102131
900.786,0.139474
909.398,0.0618325
918.009,0.0607653
926.621,0.0802718
935.233,0.0641098
943.845,0.052686
952.456,0.0378751
961.068,0.0426795
969.68,0.0662911
978.291,0.0388111
986.903,0.0505717
995.515,0.0783886
1004.13,0.0980804
1012.74,0.104842
1021.35,0.0694189
1029.96,0.107681
1038.57,0.247459
1047.19,0.448388
1055.8,0.660358
1064.41,0.695506
1073.02,0.61742
1081.63,0.492162
1090.24,0.390227
1098.86,0.295291
1107.47,0.41727
1116.08,0.598013
1124.69,0.722479
1133.3,0.668369
1141.91,0.521675
1150.53,0.36742
1159.14,0.196861
1167.75,0.136865
1176.36,0.125166
1184.97,0.0650144
1193.59,0.0354011
1202.2,0.0701452
1210.81,0.0528663
1219.42,0.0738858
1228.03,0.0778196
1236.64,0.0820596
1245.26,0.122177
1253.87,0.116967
1262.48,0.170575
1271.09,0.327771
1279.7,0.623323
1288.31,0.854138
1296.93,0.974393
1305.54,0.783591
1314.15,0.531657
1322.76,0.28457
1331.37,0.169566
1339.98,0.0930597
1348.6,0.11085
1357.21,0.0959124
1365.82,0.107815
1374.43,0.100107
1383.04,0.0886526
1391.66,0.0938999
1400.27,0.149355
1408.88,0.267337
1417.49,0.503348
1426.1,0.707227
1434.71,0.97546
1443.33,0.980573
1451.94,0.945908
1460.55,0.770804
1469.16,0.573562
1477.77,0.372465
1486.38,0.227462
1495,0.144851
1503.61,0.057133
1512.22,0.0590845
1520.83,0.0498634
1529.44,0.0537436
1538.05,0.0281221
1546.67,0.063332
1555.28,0.0589422
1563.89,0.0628467
1572.5,0.0592699
1581.11,0.0618721
1589.73,0.0421843
1598.34,0.0564258
1606.95,0.0747474
1615.56,0.0863442
1624.17,0.0631862
1632.78,0.0785578
1641.4,0.0687003
1650.01,0.0637951
1658.62,0.0687414
1667.23,0.0984134
1675.84,0.0804137
1684.45,0.0702666
1693.07,0.0792382
1701.68,0.0902027
1710.29,0.0619821
1718.9,0.0769045
1727.51,0.0565715
1736.12,0.0656756
1744.74,0.0530512
1753.35,0.0630028
1761.96,0.0454517
1770.57,0.0694235
1779.18,0.0465595
1787.8,0.046641
1796.41,0.0451629
1805.02,0.0394682
1813.63,0.0504289
1822.24,0.0461953
1830.85,0.0594078
1839.47,0.0609619
1848.08,0.0744595
1856.69,0.0609974
1865.3,0.0550052
1873.91,0.0514554
1882.52,0.0612266
1891.14,0.0651322
1899.75,0.0601819
1908.36,0.0502297
1916.97,0.0688997
1925.58,0.0383169
1934.19,0.075287
1942.81,0.0516668
1951.42,0.0517171
1960.03,0.0547147
1968.64,0.0373817
1977.25,0.0763184
1985.87,0.0477193
1994.48,0.0669114
2003.09,0.0511724
2011.7,0.0512553
2020.31,0.0875338
2028.92,0.0456897
2037.54,0.0553014
2046.15,0.0484943
2054.76,0.0479273
2063.37,0.0562099
2071.98,0.0663173
2080.59,0.0480575
2089.21,0.0466214
2097.82,0.0600113
2106.43,0.0575817
2115.04,0.0652357
2123.65,0.07369
2132.27,0.0546653
2140.88,0.0760094
2149.49,0.0470668
2158.1,0.0631372
2166.71,0.0730527
2175.32,0.0700304
2183.94,0.0598951
2192.55,0.068292
2201.16,0.0696077
2209.77,0.0569799
2218.38,0.0773963
2226.99,0.0674324
2235.61,0.0732007
2244.22,0.0583549
2252.83,0.0562254
2261.44,0.0500066
2270.05,0.0607475
2278.66,0.0655667
2287.28,0.0651882
2295.89,0.0617725
2304.5,0.0655034
2313.11,0.0618251
2321.72,0.0684958
2330.34,0.0621309
2338.95,0.0544062
2347.56,0.0647481
2356.17,0.042211
2364.78,0.0705678
2373.39,0.0659336
2382.01,0.0784885
2390.62,0.0419039
2399.23,0.0476087
2407.84,0.0688433
2416.45,0.0666753
2425.06,0.0531528
2433.68,0.0581527
2442.29,0.0592295
2450.9,0.0624433
2459.51,0.0715939
2468.12,0.054776
2476.73,0.0527995
2485.35,0.0511207
2493.96,0.0584259
2502.57,0.064481
2511.18,0.065833
2519.79,0.0621799
2528.41,0.0475532
2537.02,0.077827
2545.63,0.0636177
2554.24,0.0600241
2562.85,0.064486
2571.46,0.0691332
2580.08,0.0631134
2588.69,0.0659494
2597.3,0.0733712
2605.91,0.0636115
2614.52,0.0652543
2623.13,0.0596307
2631.75,0.0535857
2640.36,0.0564378
2648.97,0.0584954
2657.58,0.0484238
2666.19,0.0631918
2674.8,0.0704412
2683.42,0.0734342
2692.03,0.071887
2700.64,0.0670308
2709.25,0.0