File: Raman_data/LDPE.csv
200.826,0.054583
208.638,0.0769246
216.45,0.114697
224.263,0.142761
232.075,0.168214
239.887,0.134183
247.699,0.160004
255.511,0.214338
263.324,0.271405
271.136,0.23651
278.948,0.236792
286.76,0.175612
294.572,0.102941
302.385,0.0905013
310.197,0.11766
318.009,0.130195
325.821,0.0841976
333.633,0.0714298
341.446,0.0857349
349.258,0.0946903
357.07,0.161618
364.882,0.141345
372.694,0.221179
380.507,0.118905
388.319,0.165508
396.131,0.182976
403.943,0.257793
411.755,0.316829
419.568,0.359513
427.38,0.427361
435.192,0.502947
443.004,0.544936
450.816,0.531096
458.629,0.461134
466.441,0.346369
474.253,0.270468
482.065,0.254164
489.877,0.217863
497.69,0.0644931
505.502,0.0436004
513.314,0.0713204
521.126,0.0937255
528.938,0.129624
536.751,0.142616
544.563,0.111377
552.375,0.127886
560.187,0.104536
567.999,0.122362
575.812,0.207167
583.624,0.274969
591.436,0.405295
599.248,0.476628
607.06,0.451118
614.873,0.411891
622.685,0.328308
630.497,0.229125
638.309,0.202212
646.121,0.149605
653.934,0.125566
661.746,0.13037
669.558,0.122616
677.37,0.256132
685.182,0.280939
692.995,0.103448
700.807,0.0953591
708.619,0.136437
716.431,0.156158
724.243,0.100715
732.056,0.0699392
739.868,0.158263
747.68,0.32537
755.492,0.181304
763.304,0.0451565
771.117,0.0983856
778.929,0.136475
786.741,0.155911
794.553,0.128027
802.365,0.128319
810.178,0.112662
817.99,0.105231
825.802,0.0951351
833.614,0.163161
841.426,0.223949
849.239,0.263839
857.051,0.270531
864.863,0.268066
872.675,0.237421
880.487,0.166632
888.3,0.175207
896.112,0.108866
903.924,0.0817859
911.736,0.111432
919.548,0.12411
927.361,0.128487
935.173,0.164526
942.985,0.155431
950.797,0.129216
958.609,0.103295
966.422,0.043928
974.234,0.0720105
982.046,0.067015
989.858,0.0977783
997.67,0.120211
1005.48,0.131311
1013.29,0.16483
1021.11,0.132189
1028.92,0.108482
1036.73,0.121585
1044.54,0.111538
1052.36,0.2715
1060.17,0.533246
1067.98,0.424076
1075.79,0.378898
1083.6,0.526429
1091.42,0.37656
1099.23,0.187233
1107.04,0.129356
1114.85,0.172924
1122.67,0.340659
1130.48,0.324276
1138.29,0.194941
1146.1,0.164173
1153.91,0.0916178
1161.73,0.155986
1169.54,0.131407
1177.35,0.114283
1185.16,0.141219
1192.98,0.100403
1200.79,0.0717575
1208.6,0.106201
1216.41,0.107576
1224.22,0.0882501
1232.04,0.103311
1239.85,0.117776
1247.66,0.152195
1255.47,0.181021
1263.29,0.204624
1271.1,0.208876
1278.91,0.277981
1286.72,0.593188
1294.53,0.931684
1302.35,0.736969
1310.16,0.538326
1317.97,0.39598
1325.78,0.361978
1333.6,0.420029
1341.41,0.455826
1349.22,0.222034
1357.03,0.155736
1364.84,0.128198
1372.66,0.0907595
1380.47,0.111833
1388.28,0.0981565
1396.09,0.0920981
1403.9,0.131282
1411.72,0.243573
1419.53,0.378723
1427.34,0.629747
1435.15,0.994047
1442.97,0.949807
1450.78,0.814818
1458.59,0.626301
1466.4,0.373646
1474.21,0.207722
1482.03,0.15123
1489.84,0.11227
1497.65,0.109576
1505.46,0.120593
1513.28,0.12041
1521.09,0.418804
1528.9,0.585766
1536.71,0.230657
1544.52,0.0925823
1552.34,0.106422
1560.15,0.104658
1567.96,0.0935655
1575.77,0.120619
1583.59,0.137976
1591.4,0.128638
1599.21,0.156171
1607.02,0.168784
1614.83,0.139326
1622.65,0.0920869
1630.46,0.0774565
1638.27,0.0771245
1646.08,0.0992446
1653.9,0.116213
1661.71,0.114708
1669.52,0.111427
1677.33,0.150578
1685.14,0.12585
1692.96,0.0846882
1700.77,0.102917
1708.58,0.104858
1716.39,0.101323
1724.21,0.160459
1732.02,0.133619
1739.83,0.132507
1747.64,0.140461
1755.45,0.117453
1763.27,0.124135
1771.08,0.12394
1778.89,0.114585
1786.7,0.0831157
1794.51,0.103164
1802.33,0.121452
1810.14,0.0933192
1817.95,0.103089
1825.76,0.14541
1833.58,0.122061
1841.39,0.114225
1849.2,0.12607
1857.01,0.130499
1864.82,0.11181
1872.64,0.103571
1880.45,0.0964411
1888.26,0.108371
1896.07,0.110698
1903.89,0.107956
1911.7,0.107122
1919.51,0.14689
1927.32,0.141167
1935.13,0.106695
1942.95,0.123446
1950.76,0.146065
1958.57,0.112929
1966.38,0.0928281
1974.2,0.11389
1982.01,0.115304
1989.82,0.106042
1997.63,0.10544
2005.44,0.109419
2013.26,0.128787
2021.07,0.137204
2028.88,0.10381
2036.69,0.0970916
2044.51,0.130825
2052.32,0.117399
2060.13,0.0898578
2067.94,0.101909
2075.75,0.121904
2083.57,0.126259
2091.38,0.103962
2099.19,0.114989
2107,0.136755
2114.82,0.127364
2122.63,0.111378
2130.44,0.102194
2138.25,0.113205
2146.06,0.106916
2153.88,0.0912804
2161.69,0.0946881
2169.5,0.132239
2177.31,0.133872
2185.12,0.103584
2192.94,0.121886
2200.75,0.144741
2208.56,0.104215
2216.37,0.104053
2224.19,0.126357
2232,0.127091