File: Raman_data/Nylon 6.csv
200.235,0.447349
205.469,0.423046
210.703,0.39936
215.937,0.379035
221.171,0.373217
226.405,0.338634
231.639,0.309199
236.873,0.274147
242.107,0.237023
247.341,0.216858
252.575,0.187683
257.809,0.175172
263.042,0.154207
268.276,0.178799
273.51,0.136699
278.744,0.12666
283.978,0.137166
289.212,0.138334
294.446,0.137922
299.68,0.106112
304.914,0.0984659
310.148,0.0887037
315.382,0.0766505
320.616,0.0663807
325.85,0.0710951
331.083,0.0564921
336.317,0.0494271
341.551,0.0528587
346.785,0.0342898
352.019,0.0411894
357.253,0.0434023
362.487,0.0508115
367.721,0.0534577
372.955,0.0429789
378.189,0.0193966
383.423,0.0140805
388.657,0.00505914
393.891,0.00348032
399.124,0.00421301
404.358,0.0022535
409.592,0.00277782
414.826,0.00875812
420.06,0.0183185
425.294,0.0290845
430.528,0.0325847
435.762,0.0336623
440.996,0.0266845
446.23,0.0251113
451.464,0.018948
456.698,0.00939914
461.932,0.00721889
467.165,0.00742592
472.399,0.00922934
477.633,0.0122636
482.867,0.0159083
488.101,0.014768
493.335,0.0223572
498.569,0.0240654
503.803,0.0321136
509.037,0.0338609
514.271,0.03834
519.505,0.0461431
524.739,0.0467666
529.973,0.0568921
535.206,0.0743887
540.44,0.0664834
545.674,0.0441724
550.908,0.0243963
556.142,0.0158617
561.376,0.0198128
566.61,0.0396871
571.844,0.0655328
577.078,0.106169
582.312,0.123191
587.546,0.123059
592.78,0.116614
598.014,0.114944
603.247,0.109792
608.481,0.100061
613.715,0.0929673
618.949,0.0784298
624.183,0.0739922
629.417,0.0656857
634.651,0.0612193
639.885,0.0560868
645.119,0.0360562
650.353,0.0352759
655.587,0.0209318
660.821,0.0147895
666.055,0.011765
671.288,0.00656504
676.522,0.00531486
681.756,0.013399
686.99,0.0202881
692.224,0.0269391
697.458,0.0199359
702.692,0.0252378
707.926,0.0287479
713.16,0.0380278
718.394,0.032318
723.628,0.0214971
728.862,0.0218682
734.096,0.0289696
739.329,0.0284749
744.563,0.0218013
749.797,0.0159281
755.031,0.0131113
760.265,0.0194156
765.499,0.035785
770.733,0.0514809
775.967,0.0387819
781.201,0.020309
786.435,0.00551782
791.669,0.0259662
796.903,0.0831679
802.137,0.101712
807.37,0.0682489
812.604,0.0249519
817.838,0.0133245
823.072,0.0324517
828.306,0.0591186
833.54,0.0732607
838.774,0.0961976
844.008,0.101118
849.242,0.0972113
854.476,0.101345
859.71,0.0991743
864.944,0.0944653
870.178,0.0873241
875.411,0.10509
880.645,0.119848
885.879,0.115003
891.113,0.120487
896.347,0.115934
901.581,0.111927
906.815,0.11882
912.049,0.141951
917.283,0.189362
922.517,0.266099
927.751,0.410245
932.985,0.452967
938.219,0.35136
943.452,0.202924
948.686,0.147691
953.92,0.144401
959.154,0.170731
964.388,0.19512
969.622,0.178649
974.856,0.151684
980.09,0.110026
985.324,0.0860171
990.558,0.06409
995.792,0.0554558
1001.03,0.0621731
1006.26,0.0490447
1011.49,0.0250986
1016.73,0.0183489
1021.96,0.0187321
1027.2,0.0337646
1032.43,0.0644818
1037.66,0.109797
1042.9,0.139405
1048.13,0.169188
1053.36,0.310122
1058.6,0.542557
1063.83,0.653096
1069.07,0.664113
1074.3,0.631479
1079.53,0.574179
1084.77,0.458657
1090,0.363839
1095.24,0.292759
1100.47,0.287048
1105.7,0.287149
1110.94,0.300899
1116.17,0.420769
1121.41,0.750648
1126.64,0.92745
1131.87,0.675248
1137.11,0.253898
1142.34,0.0397712
1147.58,0.00675722
1152.81,0.0265488
1158.04,0.0673237
1163.28,0.120639
1168.51,0.149676
1173.75,0.129236
1178.98,0.0863133
1184.21,0.0613291
1189.45,0.0579822
1194.68,0.102317
1199.91,0.163208
1205.15,0.165261
1210.38,0.135559
1215.62,0.0987359
1220.85,0.0829509
1226.08,0.0918005
1231.32,0.143207
1236.55,0.179077
1241.79,0.193296
1247.02,0.185918
1252.25,0.19545
1257.49,0.2261
1262.72,0.271843
1267.96,0.33223
1273.19,0.479384
1278.42,0.614622
1283.66,0.595892
1288.89,0.493186
1294.13,0.466048
1299.36,0.555683
1304.59,0.676281
1309.83,0.619834
1315.06,0.43867
1320.29,0.27047
1325.53,0.18602
1330.76,0.137018
1336,0.112308
1341.23,0.117763
1346.46,0.138868
1351.7,0.149046
1356.93,0.138897
1362.17,0.156179
1367.4,0.184145
1372.63,0.19476
1377.87,0.200762
1383.1,0.190063
1388.34,0.162977
1393.57,0.111387
1398.8,0.0795448
1404.04,0.0773869
1409.27,0.121173
1414.51,0.189654
1419.74,0.247926
1424.97,0.293032
1430.21,0.430346
1435.44,0.677821
1440.68,0.949811
1445.91,0.959345
1451.14,0.683762
1456.38,0.429065
1461.61,0.36027
1466.84,0.363312
1472.08,0.335568
1477.31,0.299784
1482.55,0.226134
1487.78,0.119331
1493.01,0.0559785
1498.25,0.0257149
1503.48,0.0166099
1508.72,0.0104063
1513.95,0.0118571
1519.18,0.0162676
1524.42,0.0186783
1529.65,0.0256873
1534.89,0.0293545
1540.12,0.0292229
1545.35,0.0299604
1550.59,0.02877
1555.82,0.0263949
1561.06,0.0173929
1566.29,0.018755
1571.52,0.017567
1576.76,0.0118412
1581.99,0.0140223
1587.22,0.0168422
1592.46,0.016877
1597.69,0.0238744
1602.93,0.0370085
1608.16,0.0464765
1613.39,0.0569193
1618.63,0.0872716
1623.86,0.144413
1629.1,0.305124
1634.33,0.436879
1639.56,0.384955
1644.8,0.247749
1650.03,0.167835
1655.27,0.133156
1660.5,0.112733
1665.73,0.0890476
1670.97,0.0587459
1676.2,0.0444076
1681.44,0.0299276
1686.67,0.0254155
1691.9,0.0223801
1697.14,0.0174741
1702.37,0.0177882
1707.61,0.0162148
1712.84,0.0187459
1718.07,0.0184836
1723.31,0.0198755
1728.54,0.0203109
1733.77,0.0222679
1739.01,0.0213919
1744.24,0.025329
1746.86,0.0237382