File: Raman_data/PETG.csv
200.376,0.054766
206.385,0.0845829
212.394,0.0747294
218.404,0.0793283
224.413,0.0728227
230.422,0.0737337
236.431,0.0875267
242.44,0.093431
248.449,0.139616
254.458,0.166
260.467,0.231053
266.476,0.269011
272.485,0.245003
278.494,0.213087
284.503,0.136338
290.513,0.110494
296.522,0.0972808
302.531,0.103328
308.54,0.0760089
314.549,0.0721504
320.558,0.039575
326.567,0.0328619
332.576,0.0230784
338.585,0.0451823
344.594,0.0701785
350.603,0.0889797
356.613,0.0898741
362.622,0.0842545
368.631,0.0743175
374.64,0.0547763
380.649,0.0355853
386.658,0.0626709
392.667,0.0364203
398.676,0.060171
404.685,0.0993116
410.694,0.101183
416.703,0.0861222
422.713,0.0645214
428.722,0.0467515
434.731,0.0615692
440.74,0.0725958
446.749,0.0554092
452.758,0.0582248
458.767,0.0783296
464.776,0.0941576
470.785,0.0774983
476.794,0.0730799
482.803,0.056367
488.813,0.0663533
494.822,0.0452412
500.831,0.0562848
506.84,0.0448123
512.849,0.0763867
518.858,0.0572031
524.867,0.0592544
530.876,0.0734277
536.885,0.0888947
542.894,0.0647501
548.903,0.0653382
554.912,0.0565737
560.922,0.0449163
566.931,0.0622746
572.94,0.0496431
578.949,0.0500241
584.958,0.0882201
590.967,0.0704672
596.976,0.0432726
602.985,0.0683094
608.994,0.0495911
615.003,0.0612788
621.012,0.08714
627.022,0.185211
633.031,0.542837
639.04,0.162134
645.049,0.0913978
651.058,0.0708859
657.067,0.0808428
663.076,0.0739694
669.085,0.0686372
675.094,0.0654916
681.103,0.0687013
687.112,0.0443384
693.122,0.0658702
699.131,0.141817
705.14,0.223641
711.149,0.160686
717.158,0.0743716
723.167,0.0803155
729.176,0.0559572
735.185,0.0777799
741.194,0.077185
747.203,0.0585026
753.212,0.0683693
759.222,0.0793678
765.231,0.117359
771.24,0.166344
777.249,0.146804
783.258,0.150086
789.267,0.174471
795.276,0.229329
801.285,0.191773
807.294,0.176198
813.303,0.193181
819.312,0.17598
825.321,0.16474
831.331,0.179245
837.34,0.201078
843.349,0.261421
849.358,0.334784
855.367,0.405319
861.376,0.394547
867.385,0.339279
873.394,0.274991
879.403,0.237183
885.412,0.192555
891.421,0.151077
897.431,0.128045
903.44,0.0764177
909.449,0.0878007
915.458,0.0674159
921.467,0.0736797
927.476,0.0684591
933.485,0.0695229
939.494,0.0636493
945.503,0.0370801
951.512,0.033985
957.521,0.0449505
963.531,0.0116034
969.54,0.0377173
975.549,0.0350295
981.558,0.0502838
987.567,0.0380377
993.576,0.0434853
999.585,0.0750292
1005.59,0.0711551
1011.6,0.0594439
1017.61,0.077748
1023.62,0.068692
1029.63,0.0768501
1035.64,0.0611918
1041.65,0.0590988
1047.66,0.0584746
1053.67,0.0434573
1059.68,0.0539787
1065.69,0.0583354
1071.69,0.0690625
1077.7,0.0905367
1083.71,0.0746535
1089.72,0.120331
1095.73,0.130219
1101.74,0.143196
1107.75,0.184004
1113.76,0.177689
1119.77,0.175458
1125.78,0.101953
1131.79,0.0775053
1137.79,0.0521562
1143.8,0.0483147
1149.81,0.0475921
1155.82,0.0715593
1161.83,0.0860153
1167.84,0.101786
1173.85,0.155805
1179.86,0.14023
1185.87,0.0706951
1191.88,0.0725285
1197.89,0.0609966
1203.89,0.0324223
1209.9,0.0497969
1215.91,0.0710824
1221.92,0.091813
1227.93,0.105314
1233.94,0.0953896
1239.95,0.139201
1245.96,0.167834
1251.97,0.210879
1257.98,0.251113
1263.98,0.286382
1269.99,0.330931
1276,0.416315
1282.01,0.442251
1288.02,0.415766
1294.03,0.317512
1300.04,0.236854
1306.05,0.243732
1312.06,0.220551
1318.07,0.19461
1324.08,0.176633
1330.08,0.154063
1336.09,0.128074
1342.1,0.131139
1348.11,0.149505
1354.12,0.16154
1360.13,0.10713
1366.14,0.121653
1372.15,0.10886
1378.16,0.107238
1384.17,0.124022
1390.18,0.0985541
1396.18,0.0924153
1402.19,0.111467
1408.2,0.129453
1414.21,0.109138
1420.22,0.0753547
1426.23,0.0489593
1432.24,0.061325
1438.25,0.112774
1444.26,0.107779
1450.27,0.114972
1456.28,0.118363
1462.28,0.087248
1468.29,0.0740808
1474.3,0.0816177
1480.31,0.0492254
1486.32,0.0543039
1492.33,0.041321
1498.34,0.0404038
1504.35,0.0224041
1510.36,0.0351763
1516.37,0.0538261
1522.38,0.0364466
1528.38,0.0471101
1534.39,0.0525362
1540.4,0.0428
1546.41,0.0530522
1552.42,0.0571429
1558.43,0.0602014
1564.44,0.0748947
1570.45,0.0795397
1576.46,0.0945458
1582.47,0.105373
1588.48,0.123763
1594.48,0.176376
1600.49,0.277684
1606.5,0.565851
1612.51,0.984445
1618.52,0.4963
1624.53,0.167405
1630.54,0.104897
1636.55,0.0734236
1642.56,0.0588073
1648.57,0.0678869
1654.58,0.0644902
1660.58,0.0773609
1666.59,0.0522613
1672.6,0.0660654
1678.61,0.0578214
1684.62,0.0707778
1690.63,0.0649623
1696.64,0.0783478
1702.65,0.0787968
1708.66,0.145025
1714.67,0.278639
1720.68,0.411232
1726.68,0.443297
1732.69,0.386552
1738.7,0.272509
1744.71,0.153598
1750.72,0.0970506
1756.73,0.105416
1762.74,0.0715432
1768.75,0.071729
1774.76,0.0434209
1780.77,0.0531118
1786.78,0.0455355
1792.78,0.0637132
1798.79,0.0650984
1804.8,0.0527122
1810.81,0.0379604
1816.82,0.0616711
1822.83,0.0538244
1828.84,0.0548043
1834.85,0.0601332
1840.86,0.0438736
1845.66,0.057684