File: Raman_data/PLA.csv
200.235,0.243861
205.469,0.210488
210.703,0.195973
215.937,0.166322
221.171,0.175058
226.405,0.139897
231.639,0.114188
236.873,0.130449
242.107,0.107954
247.341,0.127999
252.575,0.0998633
257.809,0.072504
263.042,0.0722319
268.276,0.0582768
273.51,0.0657146
278.744,0.0767462
283.978,0.111885
289.212,0.127338
294.446,0.19182
299.68,0.222821
304.914,0.23967
310.148,0.233799
315.382,0.239564
320.616,0.200454
325.85,0.187005
331.083,0.13414
336.317,0.0883286
341.551,0.0973079
346.785,0.0921084
352.019,0.0836084
357.253,0.108292
362.487,0.11606
367.721,0.103163
372.955,0.125496
378.189,0.14752
383.423,0.184938
388.657,0.278169
393.891,0.326508
399.124,0.39747
404.358,0.379295
409.592,0.355549
414.826,0.31886
420.06,0.198875
425.294,0.144407
430.528,0.123682
435.762,0.0437214
440.996,0.0659768
446.23,0.0456772
451.464,0.00951577
456.698,0.0310932
461.932,0.037923
467.165,0.0353906
472.399,0.0586575
477.633,0.0255019
482.867,0.0462875
488.101,0.0268083
493.335,0.0334598
498.569,0.0378378
503.803,0.0399664
509.037,0.0505497
514.271,0.072477
519.505,0.0683899
524.739,0.0535803
529.973,0.0612233
535.206,0.045481
540.44,0.0739818
545.674,0.0530081
550.908,0.032516
556.142,0.0466163
561.376,0.04975
566.61,0.0584366
571.844,0.0609482
577.078,0.0452856
582.312,0.0745694
587.546,0.0736037
592.78,0.0805454
598.014,0.0827754
603.247,0.0902737
608.481,0.0777722
613.715,0.0908307
618.949,0.0710243
624.183,0.100477
629.417,0.0827113
634.651,0.0896539
639.885,0.110012
645.119,0.102962
650.353,0.106998
655.587,0.113087
660.821,0.111532
666.055,0.125393
671.288,0.181048
676.522,0.190739
681.756,0.207208
686.99,0.213835
692.224,0.17432
697.458,0.175594
702.692,0.153113
707.926,0.150852
713.16,0.162724
718.394,0.121895
723.628,0.119447
728.862,0.148025
734.096,0.163054
739.329,0.143261
744.563,0.145831
749.797,0.163261
755.031,0.0987374
760.265,0.123082
765.499,0.111222
770.733,0.106563
775.967,0.0938324
781.201,0.138248
786.435,0.0960168
791.669,0.12588
796.903,0.259591
802.137,0.262224
807.37,0.211408
812.604,0.11167
817.838,0.0635474
823.072,0.0417156
828.306,0.0793599
833.54,0.0403682
838.774,0.089014
844.008,0.114835
849.242,0.158157
854.476,0.255187
859.71,0.404704
864.944,0.656728
870.178,0.950407
875.411,0.93299
880.645,0.667316
885.879,0.367846
891.113,0.192405
896.347,0.143827
901.581,0.138487
906.815,0.124479
912.049,0.109919
917.283,0.130952
922.517,0.140939
927.751,0.125308
932.985,0.111219
938.219,0.0841349
943.452,0.0460649
948.686,0.0772478
953.92,0.0665052
959.154,0.132646
964.388,0.188467
969.622,0.150541
974.856,0.0720877
980.09,0.0279795
985.324,0.0356691
990.558,0.0205152
995.792,0.0143617
1001.03,0.0601513
1006.26,0.0629986
1011.49,0.0711077
1016.73,0.0847076
1021.96,0.0921434
1027.2,0.121623
1032.43,0.188743
1037.66,0.281336
1042.9,0.310087
1048.13,0.263775
1053.36,0.196832
1058.6,0.145877
1063.83,0.0843459
1069.07,0.0933229
1074.3,0.0953642
1079.53,0.125854
1084.77,0.174747
1090,0.236144
1095.24,0.253217
1100.47,0.229043
1105.7,0.19978
1110.94,0.164081
1116.17,0.17909
1121.41,0.258419
1126.64,0.289279
1131.87,0.301298
1137.11,0.225463
1142.34,0.128241
1147.58,0.0970785
1152.81,0.0943585
1158.04,0.0745798
1163.28,0.0697704
1168.51,0.0744467
1173.75,0.076781
1178.98,0.134479
1184.21,0.147376
1189.45,0.099014
1194.68,0.0553582
1199.91,0.0718602
1205.15,0.0771442
1210.38,0.0837527
1215.62,0.119478
1220.85,0.107079
1226.08,0.0796636
1231.32,0.0720964
1236.55,0.0666423
1241.79,0.0684796
1247.02,0.0612585
1252.25,0.0663842
1257.49,0.0635498
1262.72,0.0821849
1267.96,0.0852665
1273.19,0.0600579
1278.42,0.0845335
1283.66,0.0965694
1288.89,0.162393
1294.13,0.178394
1299.36,0.204127
1304.59,0.158025
1309.83,0.157619
1315.06,0.118213
1320.29,0.11378
1325.53,0.109782
1330.76,0.107068
1336,0.11337
1341.23,0.155896
1346.46,0.192434
1351.7,0.199262
1356.93,0.150901
1362.17,0.105921
1367.4,0.0891505
1372.63,0.0881937
1377.87,0.0993671
1383.1,0.135916
1388.34,0.116871
1393.57,0.104354
1398.8,0.0550221
1404.04,0.0584493
1409.27,0.0554423
1414.51,0.0519494
1419.74,0.0371606
1424.97,0.0608344
1430.21,0.0686994
1435.44,0.123701
1440.68,0.206934
1445.91,0.285488
1451.14,0.308147
1456.38,0.319061
1461.61,0.261746
1466.84,0.142113
1472.08,0.101672
1477.31,0.066063
1482.55,0.0602636
1487.78,0.0405218
1493.01,0.0233617
1498.25,0.035211
1503.48,0.0297444
1508.72,0.0254906
1513.95,0.0102349
1519.18,0.0428952
1524.42,0.0438096
1529.65,0.0339234
1534.89,0.0398609
1540.12,0.0204723
1545.35,0.035344
1550.59,0.0413555
1555.82,0.0425502
1561.06,0.0580155
1566.29,0.0556595
1571.52,0.0588656
1576.76,0.070091
1581.99,0.0722997
1587.22,0.0715283
1592.46,0.0756663
1597.69,0.07999
1602.93,0.0899558
1608.16,0.0927386
1613.39,0.0875489
1618.63,0.0797172
1623.86,0.079986
1629.1,0.085041
1634.33,0.0937162
1639.56,0.0894867
1644.8,0.104973
1650.03,0.0921928
1655.27,0.101685
1660.5,0.115772
1665.73,0.123224
1670.97,0.127269
1676.2,0.109795
1681.44,0.125213
1686.67,0.138863
1691.9,0.125956
1697.14,0.131117
1702.37,0.13965
1707.61,0.1417
1712.84,0.145569
1718.07,0.160837
1723.31,0.159673
1728.54,0.153849
1733.77,0.163226
1739.01,0.200246
1744.24,0.231939
1746.86,0.262057