File: FTIR_data/HDPE.csv
449.815,0.953128
461.868,0.959074
473.921,0.949939
485.974,0.938088
498.027,0.927081
510.079,0.94057
522.132,0.950126
534.185,0.944097
546.238,0.937264
558.291,0.941838
570.344,0.946672
582.397,0.947735
594.45,0.94597
606.503,0.935573
618.556,0.929745
630.609,0.938465
642.662,0.928114
654.714,0.933185
666.767,0.933195
678.82,0.930854
690.873,0.923954
702.926,0.906008
714.979,0.796171
727.032,0.695946
739.085,0.896655
751.138,0.93589
763.191,0.939765
775.244,0.941058
787.297,0.943664
799.349,0.940624
811.402,0.942012
823.455,0.94474
835.508,0.944316
847.561,0.943277
859.614,0.943374
871.667,0.943792
883.72,0.945211
895.773,0.942933
907.826,0.941289
919.879,0.942545
931.932,0.944622
943.984,0.943291
956.037,0.945177
968.09,0.942905
980.143,0.942225
992.196,0.942394
1004.25,0.944783
1016.3,0.941982
1028.35,0.938892
1040.41,0.941833
1052.46,0.941406
1064.51,0.939417
1076.57,0.926942
1088.62,0.915137
1100.67,0.927812
1112.73,0.927749
1124.78,0.921906
1136.83,0.931413
1148.88,0.937911
1160.94,0.942065
1172.99,0.93992
1185.04,0.934396
1197.1,0.928124
1209.15,0.926712
1221.2,0.938967
1233.25,0.945648
1245.31,0.945676
1257.36,0.943612
1269.41,0.942281
1281.47,0.941872
1293.52,0.939136
1305.57,0.935489
1317.62,0.936952
1329.68,0.941053
1341.73,0.94122
1353.78,0.935314
1365.84,0.931784
1377.89,0.925137
1389.94,0.938562
1402,0.942676
1414.05,0.942717
1426.1,0.931968
1438.15,0.915121
1450.21,0.88953
1462.26,0.833329
1474.31,0.626337
1486.37,0.889893
1498.42,0.946835
1510.47,0.949732
1522.52,0.951548
1534.58,0.954195
1546.63,0.950033
1558.68,0.949244
1570.74,0.951824
1582.79,0.948608
1594.84,0.953239
1606.89,0.954194
1618.95,0.949907
1631,0.954902
1643.05,0.952093
1655.11,0.951095
1667.16,0.951659
1679.21,0.951495
1691.27,0.955365
1703.32,0.95633
1715.37,0.953397
1727.42,0.955322
1739.48,0.95798
1751.53,0.961246
1763.58,0.955789
1775.64,0.956984
1787.69,0.958966
1799.74,0.95931
1811.79,0.959741
1823.85,0.959493
1835.9,0.956575
1847.95,0.964206
1860.01,0.958581
1872.06,0.958806
1884.11,0.960028
1896.16,0.961791
1908.22,0.955135
1920.27,0.957878
1932.32,0.960003
1944.38,0.957326
1956.43,0.9557
1968.48,0.95291
1980.54,0.954979
1992.59,0.948078
2004.64,0.954481
2016.69,0.950902
2028.75,0.953032
2040.8,0.94702
2052.85,0.947578
2064.91,0.961495
2076.96,0.951854
2089.01,0.959495
2101.06,0.958049
2113.12,0.959983
2125.17,0.961415
2137.22,0.967388
2149.28,0.965918
2161.33,0.972957
2173.38,0.99713
2185.43,0.976978
2197.49,0.960185
2209.54,0.965211
2221.59,0.979768
2233.65,0.967697
2245.7,0.969351
2257.75,0.967978
2269.81,0.964593
2281.86,0.960329
2293.91,0.959744
2305.96,0.957743
2318.02,0.955417
2330.07,0.944725
2342.12,0.937747
2354.18,0.938377
2366.23,0.927505
2378.28,0.921596
2390.33,0.949434
2402.39,0.961013
2414.44,0.96551
2426.49,0.968382
2438.55,0.968051
2450.6,0.966659
2462.65,0.965498
2474.7,0.968621
2486.76,0.965587
2498.81,0.965529
2510.86,0.968879
2522.92,0.969692
2534.97,0.967985
2547.02,0.966308
2559.08,0.964885
2571.13,0.963911
2583.18,0.962087
2595.23,0.962159
2607.29,0.957696
2619.34,0.953296
2631.39,0.950388
2643.45,0.943926
2655.5,0.943973
2667.55,0.944502
2679.6,0.946016
2691.66,0.94749
2703.71,0.948424
2715.76,0.948777
2727.82,0.944467
2739.87,0.94324
2751.92,0.93977
2763.97,0.937998
2776.03,0.933652
2788.08,0.929459
2800.13,0.918164
2812.19,0.897004
2824.24,0.872991
2836.29,0.827506
2848.35,0.70539
2860.4,0.219395
2872.45,0.579861
2884.5,0.811426
2896.56,0.706344
2908.61,0.537649
2920.66,0.345335
2932.72,0.0201018
2944.77,0.57301
2956.82,0.844289
2968.87,0.930551
2980.93,0.950948
2992.98,0.964266
3005.03,0.969491
3017.09,0.97338
3029.14,0.974903
3041.19,0.971615
3053.24,0.970105
3065.3,0.97359
3077.35,0.973125
3089.4,0.973153
3101.46,0.973141
3113.51,0.971471
3125.56,0.975687
3137.62,0.976075
3149.67,0.976362
3161.72,0.976608
3173.77,0.976435
3185.83,0.977412
3197.88,0.975693
3209.93,0.976325
3221.99,0.976246
3234.04,0.979401
3246.09,0.975528
3258.14,0.972839
3270.2,0.974584
3282.25,0.976495
3294.3,0.9741
3306.36,0.973511
3318.41,0.975198
3330.46,0.973804
3342.51,0.975514
3354.57,0.975065
3366.62,0.975165
3378.67,0.973336
3390.73,0.972043
3402.78,0.973387
3414.83,0.973794
3426.89,0.972854
3438.94,0.976918
3450.99,0.97121
3463.04,0.977421
3475.1,0.976014
3487.15,0.975429
3499.2,0.980357
3511.26,0.973699
3523.31,0.977043
3535.36,0.98069
3547.41,0.976555
3559.47,0.975988
3571.52,0.97642
3583.57,0.97456
3595.63,0.978815
3607.68,0.980117
3619.73,0.97295
3631.78,0.970217
3643.84,0.976252
3655.89,0.981031
3667.94,0.979017
3680,0.980453
3692.05,0.983402
3704.1,0.972703
3716.16,0.982826
3728.21,0.97394
3740.26,0.983121
3752.31,0.9764
3764.37,0.974534
3776.42,0.978692
3788.47,0.974819
3800.53,0.975634
3812.58,0.982469
3824.63,0.98275
3836.68,0.976794
3848.74,0.979865
3860.79,0.977785
3872.84,0.977323
3884.9,0.97824
3896.95,0.980346
3909,0.97432
3921.05,0.978931
3933.11,0.977048
3945.16,0.979953
3957.21,0.973782
3969.27,0.978575
3981.32,0.9793
3993.37,0.978943
4000.12,0.981517