File: FTIR_data/LDPE.csv
449.815,0.792077
461.868,0.813231
473.921,0.805869
485.974,0.795315
498.027,0.790663
510.079,0.796568
522.132,0.788803
534.185,0.796681
546.238,0.784441
558.291,0.796145
570.344,0.802454
582.397,0.804316
594.45,0.805158
606.503,0.803295
618.556,0.800034
630.609,0.797297
642.662,0.789443
654.714,0.780263
666.767,0.778177
678.82,0.775359
690.873,0.776105
702.926,0.768797
714.979,0.658976
727.032,0.626635
739.085,0.81671
751.138,0.856407
763.191,0.877619
775.244,0.889983
787.297,0.899484
799.349,0.90156
811.402,0.905339
823.455,0.910494
835.508,0.914837
847.561,0.913553
859.614,0.913152
871.667,0.874014
883.72,0.734773
895.773,0.921786
907.826,0.92647
919.879,0.928198
931.932,0.928838
943.984,0.92701
956.037,0.928219
968.09,0.925526
980.143,0.920929
992.196,0.923796
1004.25,0.91871
1016.3,0.91319
1028.35,0.906288
1040.41,0.912399
1052.46,0.916901
1064.51,0.917725
1076.57,0.916332
1088.62,0.912282
1100.67,0.907382
1112.73,0.90882
1124.78,0.912343
1136.83,0.917222
1148.88,0.919019
1160.94,0.918445
1172.99,0.914252
1185.04,0.917599
1197.1,0.920528
1209.15,0.920957
1221.2,0.919154
1233.25,0.916517
1245.31,0.901745
1257.36,0.900593
1269.41,0.891321
1281.47,0.895874
1293.52,0.890241
1305.57,0.88427
1317.62,0.879924
1329.68,0.8763
1341.73,0.861273
1353.78,0.839353
1365.84,0.809889
1377.89,0.767059
1389.94,0.738735
1402,0.701976
1414.05,0.659159
1426.1,0.593193
1438.15,0.570316
1450.21,0.57553
1462.26,0.563017
1474.31,0.471909
1486.37,0.745301
1498.42,0.820213
1510.47,0.850693
1522.52,0.872601
1534.58,0.891078
1546.63,0.902822
1558.68,0.913552
1570.74,0.92046
1582.79,0.922271
1594.84,0.927835
1606.89,0.932181
1618.95,0.930464
1631,0.936039
1643.05,0.929862
1655.11,0.92899
1667.16,0.933128
1679.21,0.93564
1691.27,0.94011
1703.32,0.942445
1715.37,0.938594
1727.42,0.935037
1739.48,0.932656
1751.53,0.927374
1763.58,0.940702
1775.64,0.94336
1787.69,0.947056
1799.74,0.942673
1811.79,0.940628
1823.85,0.946845
1835.9,0.944719
1847.95,0.949281
1860.01,0.94351
1872.06,0.944513
1884.11,0.945557
1896.16,0.945748
1908.22,0.940398
1920.27,0.9417
1932.32,0.94318
1944.38,0.937182
1956.43,0.934586
1968.48,0.937446
1980.54,0.929902
1992.59,0.923456
2004.64,0.932926
2016.69,0.931739
2028.75,0.938039
2040.8,0.940254
2052.85,0.939408
2064.91,0.95124
2076.96,0.946228
2089.01,0.950274
2101.06,0.950729
2113.12,0.953664
2125.17,0.956145
2137.22,0.962018
2149.28,0.969878
2161.33,0.981469
2173.38,0.989411
2185.43,0.9721
2197.49,0.968254
2209.54,0.967487
2221.59,0.973675
2233.65,0.965051
2245.7,0.962078
2257.75,0.962865
2269.81,0.96008
2281.86,0.957149
2293.91,0.952349
2305.96,0.949847
2318.02,0.943581
2330.07,0.928971
2342.12,0.911685
2354.18,0.91326
2366.23,0.905046
2378.28,0.888904
2390.33,0.929162
2402.39,0.952069
2414.44,0.960168
2426.49,0.962805
2438.55,0.961066
2450.6,0.959437
2462.65,0.957311
2474.7,0.959921
2486.76,0.959166
2498.81,0.959636
2510.86,0.958444
2522.92,0.957548
2534.97,0.954551
2547.02,0.956004
2559.08,0.955891
2571.13,0.954892
2583.18,0.953569
2595.23,0.952744
2607.29,0.949714
2619.34,0.94525
2631.39,0.942924
2643.45,0.937798
2655.5,0.936434
2667.55,0.936892
2679.6,0.936901
2691.66,0.939043
2703.71,0.940418
2715.76,0.939939
2727.82,0.93725
2739.87,0.935375
2751.92,0.933738
2763.97,0.932164
2776.03,0.930611
2788.08,0.925395
2800.13,0.916324
2812.19,0.899658
2824.24,0.877376
2836.29,0.839428
2848.35,0.72697
2860.4,0.258318
2872.45,0.497788
2884.5,0.756143
2896.56,0.688032
2908.61,0.532053
2920.66,0.34086
2932.72,0.00366449
2944.77,0.486439
2956.82,0.773737
2968.87,0.854289
2980.93,0.886034
2992.98,0.927181
3005.03,0.942481
3017.09,0.94761
3029.14,0.947432
3041.19,0.946461
3053.24,0.946532
3065.3,0.948673
3077.35,0.947365
3089.4,0.948686
3101.46,0.950047
3113.51,0.949788
3125.56,0.950743
3137.62,0.950304
3149.67,0.952081
3161.72,0.951837
3173.77,0.951925
3185.83,0.95277
3197.88,0.951652
3209.93,0.952486
3221.99,0.950648
3234.04,0.951702
3246.09,0.951063
3258.14,0.948494
3270.2,0.950778
3282.25,0.949796
3294.3,0.949335
3306.36,0.950405
3318.41,0.949334
3330.46,0.948242
3342.51,0.949327
3354.57,0.949923
3366.62,0.950167
3378.67,0.950107
3390.73,0.950364
3402.78,0.949928
3414.83,0.951015
3426.89,0.948872
3438.94,0.951604
3450.99,0.9504
3463.04,0.952966
3475.1,0.954614
3487.15,0.950846
3499.2,0.956247
3511.26,0.953387
3523.31,0.955676
3535.36,0.955699
3547.41,0.954284
3559.47,0.95743
3571.52,0.953912
3583.57,0.956207
3595.63,0.955568
3607.68,0.958038
3619.73,0.954451
3631.78,0.947497
3643.84,0.954631
3655.89,0.95353
3667.94,0.956952
3680,0.961683
3692.05,0.961801
3704.1,0.955646
3716.16,0.958468
3728.21,0.952669
3740.26,0.960989
3752.31,0.958046
3764.37,0.954811
3776.42,0.956865
3788.47,0.954906
3800.53,0.956482
3812.58,0.962207
3824.63,0.959354
3836.68,0.958292
3848.74,0.95893
3860.79,0.957323
3872.84,0.957408
3884.9,0.957572
3896.95,0.959748
3909,0.954482
3921.05,0.957587
3933.11,0.95427
3945.16,0.956747
3957.21,0.953492
3969.27,0.956127
3981.32,0.954207
3993.37,0.955782
4000.12,0.958069