File: FTIR_data/Nylon 6,6.csv
449.815,0.681505
461.868,0.664729
473.921,0.632922
485.974,0.608272
498.027,0.564875
510.079,0.551415
522.132,0.541459
534.185,0.497952
546.238,0.523191
558.291,0.497494
570.344,0.411389
582.397,0.331613
594.45,0.472159
606.503,0.526424
618.556,0.543677
630.609,0.547916
642.662,0.532722
654.714,0.495643
666.767,0.433617
678.82,0.373203
690.873,0.361484
702.926,0.447983
714.979,0.50422
727.032,0.511847
739.085,0.580615
751.138,0.672874
763.191,0.703797
775.244,0.736243
787.297,0.764269
799.349,0.780627
811.402,0.808044
823.455,0.826333
835.508,0.836587
847.561,0.841915
859.614,0.848434
871.667,0.853827
883.72,0.851241
895.773,0.847916
907.826,0.81178
919.879,0.813461
931.932,0.770875
943.984,0.751425
956.037,0.834792
968.09,0.851326
980.143,0.853321
992.196,0.842847
1004.25,0.83441
1016.3,0.822724
1028.35,0.820715
1040.41,0.813184
1052.46,0.807464
1064.51,0.810396
1076.57,0.823084
1088.62,0.824495
1100.67,0.806352
1112.73,0.802956
1124.78,0.795644
1136.83,0.75807
1148.88,0.686174
1160.94,0.734214
1172.99,0.734348
1185.04,0.614663
1197.1,0.620099
1209.15,0.580225
1221.2,0.682228
1233.25,0.655653
1245.31,0.613242
1257.36,0.582692
1269.41,0.524126
1281.47,0.456616
1293.52,0.605705
1305.57,0.653827
1317.62,0.675469
1329.68,0.694598
1341.73,0.678452
1353.78,0.65107
1365.84,0.596678
1377.89,0.551101
1389.94,0.631528
1402,0.688329
1414.05,0.668755
1426.1,0.49629
1438.15,0.559922
1450.21,0.549174
1462.26,0.525992
1474.31,0.464635
1486.37,0.543853
1498.42,0.642753
1510.47,0.533319
1522.52,0.344336
1534.58,0.101536
1546.63,0.0630918
1558.68,0.239912
1570.74,0.415101
1582.79,0.572726
1594.84,0.670578
1606.89,0.633848
1618.95,0.42448
1631,0.130868
1643.05,0.00093207
1655.11,0.218399
1667.16,0.504185
1679.21,0.723911
1691.27,0.85392
1703.32,0.907974
1715.37,0.915173
1727.42,0.920318
1739.48,0.92533
1751.53,0.929311
1763.58,0.929143
1775.64,0.93251
1787.69,0.937324
1799.74,0.936761
1811.79,0.936955
1823.85,0.938377
1835.9,0.935991
1847.95,0.938777
1860.01,0.934142
1872.06,0.935633
1884.11,0.938334
1896.16,0.938431
1908.22,0.936831
1920.27,0.936547
1932.32,0.934668
1944.38,0.930821
1956.43,0.931385
1968.48,0.935033
1980.54,0.93107
1992.59,0.919434
2004.64,0.926235
2016.69,0.930656
2028.75,0.943868
2040.8,0.92898
2052.85,0.929565
2064.91,0.942432
2076.96,0.940272
2089.01,0.945231
2101.06,0.935813
2113.12,0.9355
2125.17,0.935274
2137.22,0.947173
2149.28,0.95078
2161.33,0.968355
2173.38,0.996499
2185.43,0.974008
2197.49,0.971104
2209.54,0.964497
2221.59,0.96656
2233.65,0.959074
2245.7,0.956921
2257.75,0.955698
2269.81,0.956437
2281.86,0.948702
2293.91,0.943038
2305.96,0.937682
2318.02,0.928382
2330.07,0.91515
2342.12,0.903589
2354.18,0.907431
2366.23,0.900029
2378.28,0.901537
2390.33,0.923265
2402.39,0.938307
2414.44,0.94841
2426.49,0.948332
2438.55,0.945905
2450.6,0.94126
2462.65,0.941034
2474.7,0.947609
2486.76,0.944405
2498.81,0.946051
2510.86,0.947372
2522.92,0.947333
2534.97,0.946078
2547.02,0.943306
2559.08,0.940643
2571.13,0.940905
2583.18,0.94035
2595.23,0.939616
2607.29,0.935814
2619.34,0.935506
2631.39,0.935205
2643.45,0.932137
2655.5,0.926985
2667.55,0.925546
2679.6,0.925139
2691.66,0.924208
2703.71,0.922209
2715.76,0.921212
2727.82,0.919597
2739.87,0.918922
2751.92,0.915039
2763.97,0.91378
2776.03,0.910955
2788.08,0.907403
2800.13,0.904395
2812.19,0.896679
2824.24,0.887207
2836.29,0.874538
2848.35,0.856017
2860.4,0.787905
2872.45,0.649376
2884.5,0.686209
2896.56,0.753209
2908.61,0.768419
2920.66,0.697809
2932.72,0.598581
2944.77,0.526551
2956.82,0.581081
2968.87,0.721383
2980.93,0.819281
2992.98,0.878239
3005.03,0.905373
3017.09,0.90959
3029.14,0.907083
3041.19,0.897859
3053.24,0.886697
3065.3,0.867866
3077.35,0.84437
3089.4,0.831923
3101.46,0.829453
3113.51,0.843138
3125.56,0.860683
3137.62,0.87389
3149.67,0.880073
3161.72,0.87819
3173.77,0.870293
3185.83,0.859837
3197.88,0.842459
3209.93,0.82698
3221.99,0.812985
3234.04,0.800154
3246.09,0.777159
3258.14,0.743171
3270.2,0.695253
3282.25,0.641811
3294.3,0.586914
3306.36,0.532763
3318.41,0.509068
3330.46,0.578615
3342.51,0.684758
3354.57,0.759166
3366.62,0.803514
3378.67,0.832106
3390.73,0.851522
3402.78,0.863782
3414.83,0.871569
3426.89,0.874733
3438.94,0.878474
3450.99,0.880768
3463.04,0.882329
3475.1,0.885409
3487.15,0.885966
3499.2,0.89015
3511.26,0.889562
3523.31,0.895807
3535.36,0.903328
3547.41,0.905861
3559.47,0.912872
3571.52,0.920196
3583.57,0.920948
3595.63,0.934082
3607.68,0.933803
3619.73,0.932362
3631.78,0.931083
3643.84,0.937049
3655.89,0.944669
3667.94,0.944134
3680,0.951675
3692.05,0.951179
3704.1,0.943257
3716.16,0.949376
3728.21,0.939306
3740.26,0.951304
3752.31,0.943778
3764.37,0.940552
3776.42,0.948849
3788.47,0.941196
3800.53,0.944871
3812.58,0.95268
3824.63,0.95323
3836.68,0.938807
3848.74,0.943834
3860.79,0.950737
3872.84,0.93808
3884.9,0.944486
3896.95,0.950228
3909,0.939642
3921.05,0.942225
3933.11,0.9428
3945.16,0.941916
3957.21,0.938585
3969.27,0.940472
3981.32,0.941047
3993.37,0.939272
4000.12,0.944742