File: FTIR_data/Nylon 6.csv
449.815,0.641901
461.868,0.680278
473.921,0.649653
485.974,0.622727
498.027,0.594526
510.079,0.571116
522.132,0.515799
534.185,0.579891
546.238,0.589717
558.291,0.544325
570.344,0.459771
582.397,0.431302
594.45,0.523464
606.503,0.556985
618.556,0.572912
630.609,0.576811
642.662,0.591332
654.714,0.583001
666.767,0.549135
678.82,0.458966
690.873,0.429735
702.926,0.535417
714.979,0.545502
727.032,0.560917
739.085,0.631992
751.138,0.73652
763.191,0.775433
775.244,0.78448
787.297,0.795451
799.349,0.818098
811.402,0.842921
823.455,0.886471
835.508,0.898059
847.561,0.901552
859.614,0.922864
871.667,0.929014
883.72,0.897033
895.773,0.888028
907.826,0.888647
919.879,0.879097
931.932,0.846207
943.984,0.871902
956.037,0.856619
968.09,0.863537
980.143,0.854284
992.196,0.860734
1004.25,0.881306
1016.3,0.88831
1028.35,0.903427
1040.41,0.879772
1052.46,0.876544
1064.51,0.857351
1076.57,0.842141
1088.62,0.883864
1100.67,0.90696
1112.73,0.838602
1124.78,0.796707
1136.83,0.86704
1148.88,0.935505
1160.94,0.843639
1172.99,0.678588
1185.04,0.736597
1197.1,0.718453
1209.15,0.601103
1221.2,0.705242
1233.25,0.729131
1245.31,0.615988
1257.36,0.60994
1269.41,0.531819
1281.47,0.669853
1293.52,0.689556
1305.57,0.708748
1317.62,0.754395
1329.68,0.780046
1341.73,0.753294
1353.78,0.754875
1365.84,0.726355
1377.89,0.659229
1389.94,0.696603
1402,0.755614
1414.05,0.718909
1426.1,0.571959
1438.15,0.588101
1450.21,0.578659
1462.26,0.573123
1474.31,0.53414
1486.37,0.590948
1498.42,0.69973
1510.47,0.590861
1522.52,0.409861
1534.58,0.185123
1546.63,0.0645624
1558.68,0.20707
1570.74,0.390826
1582.79,0.561736
1594.84,0.685495
1606.89,0.664217
1618.95,0.462945
1631,0.147238
1643.05,0.000568748
1655.11,0.222065
1667.16,0.502319
1679.21,0.721564
1691.27,0.871644
1703.32,0.932062
1715.37,0.948458
1727.42,0.952141
1739.48,0.957063
1751.53,0.961427
1763.58,0.967536
1775.64,0.971189
1787.69,0.97461
1799.74,0.97606
1811.79,0.979689
1823.85,0.98112
1835.9,0.982375
1847.95,0.982348
1860.01,0.984143
1872.06,0.982858
1884.11,0.984552
1896.16,0.983966
1908.22,0.985539
1920.27,0.987041
1932.32,0.989078
1944.38,0.98954
1956.43,0.990891
1968.48,0.994485
1980.54,0.998706
1992.59,0.985627
2004.64,0.979801
2016.69,0.979945
2028.75,0.970426
2040.8,0.965613
2052.85,0.958896
2064.91,0.963555
2076.96,0.963635
2089.01,0.968434
2101.06,0.969837
2113.12,0.97383
2125.17,0.974534
2137.22,0.975058
2149.28,0.977868
2161.33,0.975237
2173.38,0.976355
2185.43,0.970238
2197.49,0.963983
2209.54,0.962474
2221.59,0.957892
2233.65,0.959876
2245.7,0.955043
2257.75,0.958442
2269.81,0.958743
2281.86,0.96148
2293.91,0.963418
2305.96,0.9646
2318.02,0.965535
2330.07,0.956916
2342.12,0.952455
2354.18,0.947893
2366.23,0.948842
2378.28,0.940572
2390.33,0.958031
2402.39,0.969854
2414.44,0.97014
2426.49,0.970899
2438.55,0.972451
2450.6,0.973479
2462.65,0.974125
2474.7,0.972613
2486.76,0.972437
2498.81,0.972115
2510.86,0.972094
2522.92,0.9723
2534.97,0.971914
2547.02,0.968883
2559.08,0.968771
2571.13,0.965758
2583.18,0.964206
2595.23,0.963511
2607.29,0.960336
2619.34,0.957813
2631.39,0.958197
2643.45,0.956155
2655.5,0.957925
2667.55,0.958775
2679.6,0.958749
2691.66,0.959898
2703.71,0.959487
2715.76,0.959719
2727.82,0.95815
2739.87,0.955565
2751.92,0.953114
2763.97,0.949912
2776.03,0.948481
2788.08,0.944942
2800.13,0.941225
2812.19,0.937069
2824.24,0.927962
2836.29,0.913293
2848.35,0.897376
2860.4,0.824849
2872.45,0.692985
2884.5,0.703232
2896.56,0.792175
2908.61,0.79456
2920.66,0.743957
2932.72,0.669595
2944.77,0.583308
2956.82,0.600199
2968.87,0.729924
2980.93,0.83738
2992.98,0.910827
3005.03,0.94129
3017.09,0.949488
3029.14,0.946848
3041.19,0.944248
3053.24,0.931585
3065.3,0.905643
3077.35,0.87843
3089.4,0.860234
3101.46,0.856158
3113.51,0.867301
3125.56,0.887386
3137.62,0.905132
3149.67,0.909948
3161.72,0.910438
3173.77,0.902781
3185.83,0.889034
3197.88,0.869268
3209.93,0.849999
3221.99,0.835931
3234.04,0.821348
3246.09,0.796984
3258.14,0.757942
3270.2,0.704312
3282.25,0.643161
3294.3,0.58275
3306.36,0.521661
3318.41,0.520901
3330.46,0.618823
3342.51,0.708071
3354.57,0.779141
3366.62,0.827471
3378.67,0.856506
3390.73,0.879042
3402.78,0.890507
3414.83,0.901323
3426.89,0.904246
3438.94,0.906188
3450.99,0.911094
3463.04,0.912929
3475.1,0.914452
3487.15,0.918629
3499.2,0.918327
3511.26,0.921726
3523.31,0.926081
3535.36,0.93269
3547.41,0.937208
3559.47,0.941768
3571.52,0.950025
3583.57,0.954916
3595.63,0.960291
3607.68,0.962602
3619.73,0.967264
3631.78,0.973042
3643.84,0.972476
3655.89,0.977614
3667.94,0.973608
3680,0.980808
3692.05,0.978648
3704.1,0.982135
3716.16,0.983015
3728.21,0.980911
3740.26,0.982505
3752.31,0.982655
3764.37,0.98
3776.42,0.981894
3788.47,0.981109
3800.53,0.981216
3812.58,0.984467
3824.63,0.985603
3836.68,0.981651
3848.74,0.985605
3860.79,0.98645
3872.84,0.983089
3884.9,0.986136
3896.95,0.985762
3909,0.982468
3921.05,0.983294
3933.11,0.986204
3945.16,0.984114
3957.21,0.984171
3969.27,0.985823
3981.32,0.985863
3993.37,0.986922
4000.12,0.986765