File: FTIR_data/PET-rec.csv
449.815,0.72169
461.868,0.716723
473.921,0.697148
485.974,0.686201
498.027,0.639292
510.079,0.663431
522.132,0.705632
534.185,0.735566
546.238,0.749984
558.291,0.768715
570.344,0.767975
582.397,0.771429
594.45,0.765315
606.503,0.758898
618.556,0.750962
630.609,0.737987
642.662,0.732555
654.714,0.711115
666.767,0.694858
678.82,0.652933
690.873,0.623012
702.926,0.529248
714.979,0.370389
727.032,0.0028745
739.085,0.502448
751.138,0.842529
763.191,0.831855
775.244,0.799568
787.297,0.762561
799.349,0.711259
811.402,0.744798
823.455,0.735844
835.508,0.709853
847.561,0.664351
859.614,0.67002
871.667,0.606704
883.72,0.615714
895.773,0.718371
907.826,0.728506
919.879,0.766717
931.932,0.757436
943.984,0.7409
956.037,0.716452
968.09,0.665386
980.143,0.638046
992.196,0.667156
1004.25,0.632665
1016.3,0.475781
1028.35,0.519394
1040.41,0.5904
1052.46,0.566895
1064.51,0.569798
1076.57,0.42523
1088.62,0.220676
1100.67,0.153063
1112.73,0.311688
1124.78,0.357976
1136.83,0.536053
1148.88,0.681324
1160.94,0.779385
1172.99,0.778385
1185.04,0.735628
1197.1,0.728971
1209.15,0.632214
1221.2,0.489955
1233.25,0.29049
1245.31,0.127267
1257.36,0.204489
1269.41,0.273499
1281.47,0.450188
1293.52,0.538798
1305.57,0.689708
1317.62,0.788396
1329.68,0.841793
1341.73,0.754004
1353.78,0.796864
1365.84,0.862293
1377.89,0.812579
1389.94,0.840652
1402,0.825459
1414.05,0.676615
1426.1,0.845301
1438.15,0.869327
1450.21,0.830968
1462.26,0.810617
1474.31,0.848988
1486.37,0.860284
1498.42,0.887715
1510.47,0.839082
1522.52,0.882358
1534.58,0.886124
1546.63,0.881894
1558.68,0.884072
1570.74,0.881266
1582.79,0.845592
1594.84,0.869515
1606.89,0.874491
1618.95,0.848892
1631,0.857178
1643.05,0.843981
1655.11,0.832863
1667.16,0.813714
1679.21,0.759709
1691.27,0.688785
1703.32,0.582202
1715.37,0.296359
1727.42,0.207205
1739.48,0.447957
1751.53,0.735086
1763.58,0.873364
1775.64,0.891516
1787.69,0.902702
1799.74,0.902687
1811.79,0.905398
1823.85,0.907477
1835.9,0.901907
1847.95,0.908823
1860.01,0.906132
1872.06,0.909389
1884.11,0.910127
1896.16,0.909078
1908.22,0.905986
1920.27,0.906115
1932.32,0.902416
1944.38,0.89662
1956.43,0.892284
1968.48,0.896624
1980.54,0.901058
1992.59,0.895893
2004.64,0.905029
2016.69,0.905729
2028.75,0.909093
2040.8,0.914931
2052.85,0.911839
2064.91,0.913822
2076.96,0.910665
2089.01,0.914002
2101.06,0.909685
2113.12,0.911724
2125.17,0.916485
2137.22,0.92465
2149.28,0.938863
2161.33,0.961545
2173.38,0.996579
2185.43,0.959473
2197.49,0.948347
2209.54,0.940312
2221.59,0.938649
2233.65,0.928397
2245.7,0.929079
2257.75,0.927415
2269.81,0.917353
2281.86,0.910857
2293.91,0.907807
2305.96,0.902884
2318.02,0.888841
2330.07,0.858993
2342.12,0.822463
2354.18,0.816782
2366.23,0.807211
2378.28,0.777619
2390.33,0.859012
2402.39,0.904362
2414.44,0.913939
2426.49,0.916591
2438.55,0.917698
2450.6,0.916396
2462.65,0.918149
2474.7,0.92
2486.76,0.917569
2498.81,0.919476
2510.86,0.921251
2522.92,0.92114
2534.97,0.919596
2547.02,0.916544
2559.08,0.915685
2571.13,0.914962
2583.18,0.914376
2595.23,0.913415
2607.29,0.911301
2619.34,0.908892
2631.39,0.907566
2643.45,0.90329
2655.5,0.903206
2667.55,0.904349
2679.6,0.906136
2691.66,0.906732
2703.71,0.90795
2715.76,0.908077
2727.82,0.907189
2739.87,0.907332
2751.92,0.906104
2763.97,0.906611
2776.03,0.905037
2788.08,0.905539
2800.13,0.904015
2812.19,0.903265
2824.24,0.902752
2836.29,0.903784
2848.35,0.902353
2860.4,0.903003
2872.45,0.902186
2884.5,0.901142
2896.56,0.899006
2908.61,0.899455
2920.66,0.89902
2932.72,0.901772
2944.77,0.90427
2956.82,0.896726
2968.87,0.883564
2980.93,0.87703
2992.98,0.88364
3005.03,0.893951
3017.09,0.896635
3029.14,0.899188
3041.19,0.900421
3053.24,0.900826
3065.3,0.899213
3077.35,0.896604
3089.4,0.896816
3101.46,0.896859
3113.51,0.899581
3125.56,0.899277
3137.62,0.902118
3149.67,0.90356
3161.72,0.904335
3173.77,0.904947
3185.83,0.907894
3197.88,0.905133
3209.93,0.907617
3221.99,0.906901
3234.04,0.90881
3246.09,0.908519
3258.14,0.907008
3270.2,0.907789
3282.25,0.909919
3294.3,0.906116
3306.36,0.90744
3318.41,0.907866
3330.46,0.908712
3342.51,0.907845
3354.57,0.909158
3366.62,0.909668
3378.67,0.910835
3390.73,0.910908
3402.78,0.911057
3414.83,0.907903
3426.89,0.90801
3438.94,0.908298
3450.99,0.90605
3463.04,0.905613
3475.1,0.911443
3487.15,0.909717
3499.2,0.91156
3511.26,0.908828
3523.31,0.91259
3535.36,0.910649
3547.41,0.906297
3559.47,0.909593
3571.52,0.908689
3583.57,0.908276
3595.63,0.910972
3607.68,0.90483
3619.73,0.902649
3631.78,0.900468
3643.84,0.904041
3655.89,0.901894
3667.94,0.899605
3680,0.913718
3692.05,0.916253
3704.1,0.906983
3716.16,0.911252
3728.21,0.898336
3740.26,0.908494
3752.31,0.902877
3764.37,0.898131
3776.42,0.909136
3788.47,0.902437
3800.53,0.903674
3812.58,0.913256
3824.63,0.917154
3836.68,0.901719
3848.74,0.909227
3860.79,0.915941
3872.84,0.899
3884.9,0.90612
3896.95,0.911444
3909,0.90752
3921.05,0.904633
3933.11,0.905493
3945.16,0.904467
3957.21,0.903873
3969.27,0.903696
3981.32,0.904002
3993.37,0.904876
4000.12,0.908265