File: FTIR_data/PET.csv
449.815,0.775963
461.868,0.762805
473.921,0.770543
485.974,0.750531
498.027,0.698877
510.079,0.708503
522.132,0.770517
534.185,0.796371
546.238,0.823868
558.291,0.840167
570.344,0.845674
582.397,0.850367
594.45,0.849333
606.503,0.837795
618.556,0.832364
630.609,0.810686
642.662,0.807248
654.714,0.789216
666.767,0.76513
678.82,0.711498
690.873,0.672634
702.926,0.549311
714.979,0.359635
727.032,0.00227186
739.085,0.477116
751.138,0.868853
763.191,0.874064
775.244,0.839853
787.297,0.793965
799.349,0.729645
811.402,0.77619
823.455,0.764786
835.508,0.731164
847.561,0.674724
859.614,0.679017
871.667,0.61006
883.72,0.598999
895.773,0.736485
907.826,0.748281
919.879,0.795712
931.932,0.787429
943.984,0.765672
956.037,0.732407
968.09,0.673588
980.143,0.6476
992.196,0.684209
1004.25,0.64638
1016.3,0.469036
1028.35,0.480251
1040.41,0.588807
1052.46,0.551491
1064.51,0.545817
1076.57,0.37981
1088.62,0.147817
1100.67,0.0740899
1112.73,0.227467
1124.78,0.284949
1136.83,0.492059
1148.88,0.665037
1160.94,0.78718
1172.99,0.801452
1185.04,0.751752
1197.1,0.757556
1209.15,0.6417
1221.2,0.474748
1233.25,0.254325
1245.31,0.0749003
1257.36,0.129532
1269.41,0.214718
1281.47,0.40571
1293.52,0.500934
1305.57,0.665393
1317.62,0.78116
1329.68,0.84733
1341.73,0.739293
1353.78,0.782236
1365.84,0.876123
1377.89,0.82025
1389.94,0.85156
1402,0.832855
1414.05,0.65018
1426.1,0.847157
1438.15,0.891916
1450.21,0.842775
1462.26,0.820302
1474.31,0.863138
1486.37,0.880154
1498.42,0.919089
1510.47,0.864234
1522.52,0.913613
1534.58,0.9176
1546.63,0.920621
1558.68,0.920339
1570.74,0.91306
1582.79,0.877839
1594.84,0.897926
1606.89,0.907831
1618.95,0.879145
1631,0.888836
1643.05,0.877659
1655.11,0.865042
1667.16,0.839877
1679.21,0.779001
1691.27,0.691243
1703.32,0.56823
1715.37,0.254268
1727.42,0.160301
1739.48,0.40689
1751.53,0.72002
1763.58,0.895786
1775.64,0.923182
1787.69,0.931381
1799.74,0.93312
1811.79,0.934614
1823.85,0.935086
1835.9,0.930946
1847.95,0.937843
1860.01,0.935864
1872.06,0.939354
1884.11,0.939729
1896.16,0.93902
1908.22,0.937155
1920.27,0.933733
1932.32,0.929633
1944.38,0.92297
1956.43,0.914407
1968.48,0.917537
1980.54,0.912329
1992.59,0.910007
2004.64,0.926628
2016.69,0.927339
2028.75,0.926541
2040.8,0.934116
2052.85,0.934176
2064.91,0.941941
2076.96,0.936178
2089.01,0.942661
2101.06,0.941515
2113.12,0.943765
2125.17,0.949157
2137.22,0.955698
2149.28,0.965543
2161.33,0.97904
2173.38,0.997824
2185.43,0.97813
2197.49,0.967876
2209.54,0.969458
2221.59,0.972633
2233.65,0.962545
2245.7,0.958939
2257.75,0.960686
2269.81,0.954817
2281.86,0.94682
2293.91,0.94382
2305.96,0.940326
2318.02,0.935573
2330.07,0.918632
2342.12,0.896825
2354.18,0.895212
2366.23,0.888025
2378.28,0.866693
2390.33,0.915166
2402.39,0.940821
2414.44,0.94834
2426.49,0.951445
2438.55,0.950959
2450.6,0.949297
2462.65,0.951234
2474.7,0.952287
2486.76,0.952215
2498.81,0.952202
2510.86,0.953515
2522.92,0.953968
2534.97,0.951432
2547.02,0.950388
2559.08,0.950848
2571.13,0.951359
2583.18,0.95009
2595.23,0.950157
2607.29,0.948017
2619.34,0.945928
2631.39,0.944514
2643.45,0.941442
2655.5,0.941115
2667.55,0.941415
2679.6,0.943246
2691.66,0.943396
2703.71,0.943467
2715.76,0.942804
2727.82,0.941261
2739.87,0.941514
2751.92,0.939436
2763.97,0.938687
2776.03,0.93795
2788.08,0.93705
2800.13,0.936049
2812.19,0.934267
2824.24,0.932821
2836.29,0.932851
2848.35,0.930647
2860.4,0.93128
2872.45,0.927974
2884.5,0.926412
2896.56,0.92498
2908.61,0.923536
2920.66,0.921427
2932.72,0.923826
2944.77,0.928186
2956.82,0.921115
2968.87,0.903473
2980.93,0.890815
2992.98,0.900455
3005.03,0.914501
3017.09,0.919659
3029.14,0.923065
3041.19,0.92635
3053.24,0.92781
3065.3,0.925176
3077.35,0.920767
3089.4,0.921866
3101.46,0.92099
3113.51,0.924669
3125.56,0.92359
3137.62,0.927152
3149.67,0.927398
3161.72,0.930044
3173.77,0.931368
3185.83,0.931014
3197.88,0.931384
3209.93,0.931155
3221.99,0.929922
3234.04,0.93348
3246.09,0.931842
3258.14,0.930501
3270.2,0.931358
3282.25,0.932114
3294.3,0.932515
3306.36,0.931512
3318.41,0.932813
3330.46,0.932462
3342.51,0.932619
3354.57,0.933208
3366.62,0.933137
3378.67,0.934729
3390.73,0.932718
3402.78,0.934171
3414.83,0.931399
3426.89,0.932894
3438.94,0.931166
3450.99,0.926049
3463.04,0.92996
3475.1,0.934109
3487.15,0.935747
3499.2,0.936889
3511.26,0.937375
3523.31,0.937602
3535.36,0.936514
3547.41,0.93127
3559.47,0.936038
3571.52,0.93438
3583.57,0.933908
3595.63,0.93656
3607.68,0.933995
3619.73,0.936757
3631.78,0.931602
3643.84,0.935384
3655.89,0.935507
3667.94,0.939434
3680,0.942306
3692.05,0.945745
3704.1,0.940852
3716.16,0.943598
3728.21,0.936838
3740.26,0.94288
3752.31,0.939699
3764.37,0.939237
3776.42,0.940867
3788.47,0.935943
3800.53,0.941681
3812.58,0.946299
3824.63,0.945125
3836.68,0.940621
3848.74,0.941492
3860.79,0.943345
3872.84,0.938502
3884.9,0.939803
3896.95,0.943773
3909,0.940345
3921.05,0.938955
3933.11,0.938707
3945.16,0.938742
3957.21,0.93834
3969.27,0.939201
3981.32,0.938239
3993.37,0.936796
4000.12,0.937966