File: FTIR_data/PETG.csv
449.815,0.484552
461.868,0.506777
473.921,0.5024
485.974,0.480379
498.027,0.451231
510.079,0.495361
522.132,0.526364
534.185,0.543377
546.238,0.558597
558.291,0.580863
570.344,0.587212
582.397,0.589532
594.45,0.584024
606.503,0.588967
618.556,0.596943
630.609,0.591295
642.662,0.58863
654.714,0.579685
666.767,0.571957
678.82,0.545034
690.873,0.526203
702.926,0.459388
714.979,0.35539
727.032,0.0235864
739.085,0.425791
751.138,0.752106
763.191,0.727832
775.244,0.695578
787.297,0.664176
799.349,0.613856
811.402,0.647657
823.455,0.644571
835.508,0.629526
847.561,0.601823
859.614,0.596971
871.667,0.532246
883.72,0.548091
895.773,0.645685
907.826,0.650092
919.879,0.673419
931.932,0.657589
943.984,0.633193
956.037,0.572816
968.09,0.571811
980.143,0.586831
992.196,0.615505
1004.25,0.600495
1016.3,0.463575
1028.35,0.513618
1040.41,0.59299
1052.46,0.567531
1064.51,0.553088
1076.57,0.428399
1088.62,0.219619
1100.67,0.139523
1112.73,0.298339
1124.78,0.339703
1136.83,0.543711
1148.88,0.684286
1160.94,0.735093
1172.99,0.727601
1185.04,0.706047
1197.1,0.699411
1209.15,0.620014
1221.2,0.497183
1233.25,0.322921
1245.31,0.100653
1257.36,0.157287
1269.41,0.203766
1281.47,0.349831
1293.52,0.512972
1305.57,0.665627
1317.62,0.767114
1329.68,0.815093
1341.73,0.783536
1353.78,0.810497
1365.84,0.837125
1377.89,0.788043
1389.94,0.804638
1402,0.78542
1414.05,0.65404
1426.1,0.831822
1438.15,0.843905
1450.21,0.791682
1462.26,0.755082
1474.31,0.8108
1486.37,0.850067
1498.42,0.872432
1510.47,0.821176
1522.52,0.866514
1534.58,0.866229
1546.63,0.867833
1558.68,0.868305
1570.74,0.860261
1582.79,0.830192
1594.84,0.855484
1606.89,0.857457
1618.95,0.834498
1631,0.844722
1643.05,0.836592
1655.11,0.827658
1667.16,0.805119
1679.21,0.755656
1691.27,0.68721
1703.32,0.576316
1715.37,0.252206
1727.42,0.172144
1739.48,0.440707
1751.53,0.753478
1763.58,0.887738
1775.64,0.905627
1787.69,0.911086
1799.74,0.913932
1811.79,0.913769
1823.85,0.916814
1835.9,0.912663
1847.95,0.919786
1860.01,0.919488
1872.06,0.923466
1884.11,0.922086
1896.16,0.923976
1908.22,0.921384
1920.27,0.920938
1932.32,0.920361
1944.38,0.91739
1956.43,0.914659
1968.48,0.92515
1980.54,0.936151
1992.59,0.920083
2004.64,0.91621
2016.69,0.906098
2028.75,0.900444
2040.8,0.899177
2052.85,0.907739
2064.91,0.911172
2076.96,0.906048
2089.01,0.912717
2101.06,0.915912
2113.12,0.916292
2125.17,0.924703
2137.22,0.9314
2149.28,0.939268
2161.33,0.965717
2173.38,0.989507
2185.43,0.963187
2197.49,0.947612
2209.54,0.93206
2221.59,0.930497
2233.65,0.915693
2245.7,0.912558
2257.75,0.914022
2269.81,0.91284
2281.86,0.915517
2293.91,0.914419
2305.96,0.914501
2318.02,0.901054
2330.07,0.869329
2342.12,0.840909
2354.18,0.831249
2366.23,0.824894
2378.28,0.802475
2390.33,0.883398
2402.39,0.920537
2414.44,0.925062
2426.49,0.928249
2438.55,0.929933
2450.6,0.933614
2462.65,0.936452
2474.7,0.937191
2486.76,0.936943
2498.81,0.936183
2510.86,0.936661
2522.92,0.938735
2534.97,0.934884
2547.02,0.933265
2559.08,0.93114
2571.13,0.931309
2583.18,0.927497
2595.23,0.925468
2607.29,0.920603
2619.34,0.918567
2631.39,0.917459
2643.45,0.917344
2655.5,0.918957
2667.55,0.921802
2679.6,0.923911
2691.66,0.925478
2703.71,0.927151
2715.76,0.92966
2727.82,0.930872
2739.87,0.931652
2751.92,0.93084
2763.97,0.931039
2776.03,0.931351
2788.08,0.931003
2800.13,0.931049
2812.19,0.929349
2824.24,0.927225
2836.29,0.927281
2848.35,0.920778
2860.4,0.899229
2872.45,0.877147
2884.5,0.901993
2896.56,0.904562
2908.61,0.891379
2920.66,0.88148
2932.72,0.858677
2944.77,0.845815
2956.82,0.8572
2968.87,0.878223
2980.93,0.900252
2992.98,0.919057
3005.03,0.931828
3017.09,0.937121
3029.14,0.937878
3041.19,0.938263
3053.24,0.940034
3065.3,0.937035
3077.35,0.935133
3089.4,0.935203
3101.46,0.934346
3113.51,0.937012
3125.56,0.938442
3137.62,0.941532
3149.67,0.94225
3161.72,0.942482
3173.77,0.944358
3185.83,0.944704
3197.88,0.944076
3209.93,0.945657
3221.99,0.945281
3234.04,0.946319
3246.09,0.943877
3258.14,0.944986
3270.2,0.945424
3282.25,0.945929
3294.3,0.947176
3306.36,0.944521
3318.41,0.945549
3330.46,0.945172
3342.51,0.947798
3354.57,0.947009
3366.62,0.948018
3378.67,0.948008
3390.73,0.94781
3402.78,0.94942
3414.83,0.948057
3426.89,0.947947
3438.94,0.946539
3450.99,0.943069
3463.04,0.947874
3475.1,0.951939
3487.15,0.947714
3499.2,0.948897
3511.26,0.949396
3523.31,0.948041
3535.36,0.95142
3547.41,0.946002
3559.47,0.948076
3571.52,0.942172
3583.57,0.947581
3595.63,0.94811
3607.68,0.944902
3619.73,0.944044
3631.78,0.939167
3643.84,0.945897
3655.89,0.943027
3667.94,0.947569
3680,0.952303
3692.05,0.957385
3704.1,0.952376
3716.16,0.957032
3728.21,0.946342
3740.26,0.951122
3752.31,0.946552
3764.37,0.943774
3776.42,0.955226
3788.47,0.954332
3800.53,0.946953
3812.58,0.957122
3824.63,0.952478
3836.68,0.952343
3848.74,0.956361
3860.79,0.954637
3872.84,0.954333
3884.9,0.957135
3896.95,0.957381
3909,0.949865
3921.05,0.955748
3933.11,0.952022
3945.16,0.950967
3957.21,0.95201
3969.27,0.958414
3981.32,0.9545
3993.37,0.956181
4000.12,0.95897