File: FTIR_data/PLA.csv
449.815,0.233147
461.868,0.28002
473.921,0.39294
485.974,0.597386
498.027,0.640593
510.079,0.680071
522.132,0.701938
534.185,0.617325
546.238,0.713758
558.291,0.804723
570.344,0.826148
582.397,0.817652
594.45,0.810697
606.503,0.807807
618.556,0.783047
630.609,0.767383
642.662,0.745094
654.714,0.71291
666.767,0.604646
678.82,0.604322
690.873,0.644603
702.926,0.672063
714.979,0.700999
727.032,0.760473
739.085,0.737957
751.138,0.676663
763.191,0.64332
775.244,0.741707
787.297,0.787232
799.349,0.801763
811.402,0.8081
823.455,0.809753
835.508,0.811348
847.561,0.775491
859.614,0.728926
871.667,0.625961
883.72,0.708154
895.773,0.752036
907.826,0.741673
919.879,0.726769
931.932,0.717055
943.984,0.700986
956.037,0.647571
968.09,0.615219
980.143,0.542246
992.196,0.418395
1004.25,0.25635
1016.3,0.074839
1028.35,0.0967478
1040.41,0.171859
1052.46,0.22962
1064.51,0.379138
1076.57,0.215387
1088.62,0.00291434
1100.67,0.101818
1112.73,0.298773
1124.78,0.381629
1136.83,0.318797
1148.88,0.557613
1160.94,0.712637
1172.99,0.611422
1185.04,0.165628
1197.1,0.28468
1209.15,0.413102
1221.2,0.459875
1233.25,0.609563
1245.31,0.688747
1257.36,0.705569
1269.41,0.676399
1281.47,0.70341
1293.52,0.779067
1305.57,0.776316
1317.62,0.773841
1329.68,0.777726
1341.73,0.758134
1353.78,0.706587
1365.84,0.634967
1377.89,0.666925
1389.94,0.635566
1402,0.779645
1414.05,0.850465
1426.1,0.841825
1438.15,0.83222
1450.21,0.716587
1462.26,0.596041
1474.31,0.76797
1486.37,0.847385
1498.42,0.856933
1510.47,0.860426
1522.52,0.859537
1534.58,0.866078
1546.63,0.860339
1558.68,0.86548
1570.74,0.872511
1582.79,0.856911
1594.84,0.866403
1606.89,0.861506
1618.95,0.851611
1631,0.856069
1643.05,0.848577
1655.11,0.848011
1667.16,0.850929
1679.21,0.844041
1691.27,0.836617
1703.32,0.82063
1715.37,0.782724
1727.42,0.694033
1739.48,0.545805
1751.53,0.20327
1763.58,0.15264
1775.64,0.416004
1787.69,0.625556
1799.74,0.788092
1811.79,0.835217
1823.85,0.846446
1835.9,0.851441
1847.95,0.862568
1860.01,0.860431
1872.06,0.864894
1884.11,0.866874
1896.16,0.866447
1908.22,0.860783
1920.27,0.863644
1932.32,0.865303
1944.38,0.854222
1956.43,0.851937
1968.48,0.854619
1980.54,0.854648
1992.59,0.854268
2004.64,0.870441
2016.69,0.87152
2028.75,0.879394
2040.8,0.893315
2052.85,0.89083
2064.91,0.894426
2076.96,0.890495
2089.01,0.887781
2101.06,0.88745
2113.12,0.888157
2125.17,0.893169
2137.22,0.903092
2149.28,0.915792
2161.33,0.944918
2173.38,0.989897
2185.43,0.94954
2197.49,0.938244
2209.54,0.941299
2221.59,0.935455
2233.65,0.926311
2245.7,0.918646
2257.75,0.924267
2269.81,0.912076
2281.86,0.903925
2293.91,0.8914
2305.96,0.892578
2318.02,0.87994
2330.07,0.858727
2342.12,0.837143
2354.18,0.839942
2366.23,0.826498
2378.28,0.816206
2390.33,0.861137
2402.39,0.884224
2414.44,0.898139
2426.49,0.899379
2438.55,0.89818
2450.6,0.894729
2462.65,0.896963
2474.7,0.901035
2486.76,0.896381
2498.81,0.89993
2510.86,0.901473
2522.92,0.902782
2534.97,0.901736
2547.02,0.901718
2559.08,0.900843
2571.13,0.902794
2583.18,0.902563
2595.23,0.902626
2607.29,0.897462
2619.34,0.896739
2631.39,0.893508
2643.45,0.887863
2655.5,0.88468
2667.55,0.885075
2679.6,0.885314
2691.66,0.886902
2703.71,0.885584
2715.76,0.886706
2727.82,0.884482
2739.87,0.884897
2751.92,0.88266
2763.97,0.883349
2776.03,0.882939
2788.08,0.882579
2800.13,0.881035
2812.19,0.87878
2824.24,0.87833
2836.29,0.877422
2848.35,0.875286
2860.4,0.877012
2872.45,0.875092
2884.5,0.874409
2896.56,0.868223
2908.61,0.874062
2920.66,0.873073
2932.72,0.865997
2944.77,0.858496
2956.82,0.835653
2968.87,0.830104
2980.93,0.844893
2992.98,0.856106
3005.03,0.840628
3017.09,0.826051
3029.14,0.84914
3041.19,0.865097
3053.24,0.870764
3065.3,0.873252
3077.35,0.873007
3089.4,0.872412
3101.46,0.872444
3113.51,0.87386
3125.56,0.872589
3137.62,0.872796
3149.67,0.874798
3161.72,0.873617
3173.77,0.87419
3185.83,0.874699
3197.88,0.872083
3209.93,0.873121
3221.99,0.871249
3234.04,0.872818
3246.09,0.874058
3258.14,0.872916
3270.2,0.876053
3282.25,0.877322
3294.3,0.873537
3306.36,0.87484
3318.41,0.874684
3330.46,0.876007
3342.51,0.878616
3354.57,0.878415
3366.62,0.877955
3378.67,0.877874
3390.73,0.879365
3402.78,0.878159
3414.83,0.874898
3426.89,0.876597
3438.94,0.882672
3450.99,0.878571
3463.04,0.884894
3475.1,0.883554
3487.15,0.880967
3499.2,0.879783
3511.26,0.875879
3523.31,0.881697
3535.36,0.882979
3547.41,0.877428
3559.47,0.887776
3571.52,0.885155
3583.57,0.884125
3595.63,0.891041
3607.68,0.88792
3619.73,0.883899
3631.78,0.877554
3643.84,0.884675
3655.89,0.889179
3667.94,0.881222
3680,0.889151
3692.05,0.885193
3704.1,0.878054
3716.16,0.888856
3728.21,0.876692
3740.26,0.886168
3752.31,0.880931
3764.37,0.876269
3776.42,0.888472
3788.47,0.876656
3800.53,0.879702
3812.58,0.89027
3824.63,0.891847
3836.68,0.876402
3848.74,0.882967
3860.79,0.891903
3872.84,0.871893
3884.9,0.87947
3896.95,0.887255
3909,0.881415
3921.05,0.874772
3933.11,0.878483
3945.16,0.876942
3957.21,0.876399
3969.27,0.876394
3981.32,0.876339
3993.37,0.87408
4000.12,0.876214