File: FTIR_data/PMMA.csv
449.815,0.95828
461.868,0.957492
473.921,0.919998
485.974,0.864604
498.027,0.923694
510.079,0.926195
522.132,0.951398
534.185,0.969234
546.238,0.977688
558.291,0.967879
570.344,0.970956
582.397,0.984269
594.45,0.983405
606.503,0.97682
618.556,0.981123
630.609,0.984436
642.662,0.97812
654.714,0.977161
666.767,0.975316
678.82,0.979667
690.873,0.977804
702.926,0.974861
714.979,0.969562
727.032,0.946382
739.085,0.907486
751.138,0.719222
763.191,0.775258
775.244,0.883529
787.297,0.910939
799.349,0.898173
811.402,0.844199
823.455,0.853923
835.508,0.821804
847.561,0.716067
859.614,0.819786
871.667,0.871667
883.72,0.887152
895.773,0.8744
907.826,0.839729
919.879,0.802938
931.932,0.815976
943.984,0.791109
956.037,0.730848
968.09,0.651753
980.143,0.658805
992.196,0.596341
1004.25,0.69986
1016.3,0.870973
1028.35,0.887837
1040.41,0.862014
1052.46,0.815321
1064.51,0.671331
1076.57,0.664561
1088.62,0.672881
1100.67,0.619901
1112.73,0.523125
1124.78,0.378331
1136.83,0.19748
1148.88,0.00888224
1160.94,0.164839
1172.99,0.323835
1185.04,0.364814
1197.1,0.30985
1209.15,0.497834
1221.2,0.684136
1233.25,0.590701
1245.31,0.450845
1257.36,0.525274
1269.41,0.568992
1281.47,0.58302
1293.52,0.757473
1305.57,0.827923
1317.62,0.857636
1329.68,0.869783
1341.73,0.869389
1353.78,0.863359
1365.84,0.840208
1377.89,0.822898
1389.94,0.767923
1402,0.783539
1414.05,0.862705
1426.1,0.838489
1438.15,0.601095
1450.21,0.582697
1462.26,0.616059
1474.31,0.7018
1486.37,0.709341
1498.42,0.764435
1510.47,0.894346
1522.52,0.922574
1534.58,0.931385
1546.63,0.920617
1558.68,0.927358
1570.74,0.934292
1582.79,0.918091
1594.84,0.925807
1606.89,0.925499
1618.95,0.920969
1631,0.91091
1643.05,0.900057
1655.11,0.895984
1667.16,0.897058
1679.21,0.877106
1691.27,0.825583
1703.32,0.759308
1715.37,0.587621
1727.42,0.17574
1739.48,0.123433
1751.53,0.473375
1763.58,0.826063
1775.64,0.908491
1787.69,0.930165
1799.74,0.934483
1811.79,0.944062
1823.85,0.944179
1835.9,0.945852
1847.95,0.942931
1860.01,0.946326
1872.06,0.950251
1884.11,0.950949
1896.16,0.949066
1908.22,0.950989
1920.27,0.953805
1932.32,0.952513
1944.38,0.959618
1956.43,0.957295
1968.48,0.950023
1980.54,0.967858
1992.59,0.960073
2004.64,0.963666
2016.69,0.962087
2028.75,0.976952
2040.8,0.961839
2052.85,0.952676
2064.91,0.949693
2076.96,0.947073
2089.01,0.945447
2101.06,0.946933
2113.12,0.95275
2125.17,0.954879
2137.22,0.963104
2149.28,0.977519
2161.33,0.97428
2173.38,0.962956
2185.43,0.951206
2197.49,0.949775
2209.54,0.952547
2221.59,0.951171
2233.65,0.957653
2245.7,0.95525
2257.75,0.956559
2269.81,0.942899
2281.86,0.946718
2293.91,0.941327
2305.96,0.943452
2318.02,0.94615
2330.07,0.940896
2342.12,0.941316
2354.18,0.942361
2366.23,0.934177
2378.28,0.934262
2390.33,0.941922
2402.39,0.944782
2414.44,0.947393
2426.49,0.949824
2438.55,0.948697
2450.6,0.951736
2462.65,0.953266
2474.7,0.949363
2486.76,0.947942
2498.81,0.947969
2510.86,0.949161
2522.92,0.950242
2534.97,0.952308
2547.02,0.952041
2559.08,0.950783
2571.13,0.950413
2583.18,0.951871
2595.23,0.950006
2607.29,0.947759
2619.34,0.950061
2631.39,0.950006
2643.45,0.948389
2655.5,0.948757
2667.55,0.948564
2679.6,0.951018
2691.66,0.953599
2703.71,0.954897
2715.76,0.955666
2727.82,0.95699
2739.87,0.955388
2751.92,0.954002
2763.97,0.954501
2776.03,0.953918
2788.08,0.954947
2800.13,0.954242
2812.19,0.954442
2824.24,0.953813
2836.29,0.949394
2848.35,0.938683
2860.4,0.918178
2872.45,0.914518
2884.5,0.922525
2896.56,0.915535
2908.61,0.901101
2920.66,0.881964
2932.72,0.852266
2944.77,0.826188
2956.82,0.809191
2968.87,0.775099
2980.93,0.839523
2992.98,0.881469
3005.03,0.86137
3017.09,0.861397
3029.14,0.885727
3041.19,0.910118
3053.24,0.934918
3065.3,0.949776
3077.35,0.959435
3089.4,0.96492
3101.46,0.967406
3113.51,0.967538
3125.56,0.967818
3137.62,0.972219
3149.67,0.971844
3161.72,0.970915
3173.77,0.970333
3185.83,0.970943
3197.88,0.971571
3209.93,0.97294
3221.99,0.975136
3234.04,0.974179
3246.09,0.974707
3258.14,0.976448
3270.2,0.973812
3282.25,0.975563
3294.3,0.974813
3306.36,0.980212
3318.41,0.975875
3330.46,0.975209
3342.51,0.977413
3354.57,0.975645
3366.62,0.973617
3378.67,0.977983
3390.73,0.97729
3402.78,0.975214
3414.83,0.977449
3426.89,0.979613
3438.94,0.977936
3450.99,0.971468
3463.04,0.973636
3475.1,0.98027
3487.15,0.979963
3499.2,0.982843
3511.26,0.982198
3523.31,0.977469
3535.36,0.976482
3547.41,0.983369
3559.47,0.979034
3571.52,0.978244
3583.57,0.973295
3595.63,0.981014
3607.68,0.974882
3619.73,0.970715
3631.78,0.974061
3643.84,0.970817
3655.89,0.972382
3667.94,0.958921
3680,0.972586
3692.05,0.980127
3704.1,0.970711
3716.16,0.976465
3728.21,0.971488
3740.26,0.978927
3752.31,0.976268
3764.37,0.965004
3776.42,0.985998
3788.47,0.97384
3800.53,0.974138
3812.58,0.980417
3824.63,0.991224
3836.68,0.974018
3848.74,0.98448
3860.79,0.989114
3872.84,0.96082
3884.9,0.975714
3896.95,0.984363
3909,0.987016
3921.05,0.974068
3933.11,0.981298
3945.16,0.985518
3957.21,0.98903
3969.27,0.98081
3981.32,0.985492
3993.37,0.987256
4000.12,0.988137