File: FTIR_data/PVA.csv
449.815,0.256456
461.868,0.240403
473.921,0.224286
485.974,0.234057
498.027,0.253141
510.079,0.259592
522.132,0.254559
534.185,0.266022
546.238,0.274448
558.291,0.27477
570.344,0.292059
582.397,0.283826
594.45,0.274513
606.503,0.213604
618.556,0.307739
630.609,0.347517
642.662,0.384648
654.714,0.405952
666.767,0.400377
678.82,0.448976
690.873,0.483338
702.926,0.456467
714.979,0.533499
727.032,0.558868
739.085,0.579692
751.138,0.588218
763.191,0.602514
775.244,0.627142
787.297,0.636473
799.349,0.598168
811.402,0.584135
823.455,0.534546
835.508,0.490211
847.561,0.500281
859.614,0.530222
871.667,0.670277
883.72,0.733712
895.773,0.682496
907.826,0.653299
919.879,0.620704
931.932,0.58489
943.984,0.517675
956.037,0.510849
968.09,0.58596
980.143,0.605963
992.196,0.555429
1004.25,0.467896
1016.3,0.281747
1028.35,0.106615
1040.41,0.239325
1052.46,0.254901
1064.51,0.282756
1076.57,0.251553
1088.62,0.190655
1100.67,0.194807
1112.73,0.339996
1124.78,0.415754
1136.83,0.455474
1148.88,0.514638
1160.94,0.769805
1172.99,0.757378
1185.04,0.718264
1197.1,0.661131
1209.15,0.568517
1221.2,0.38079
1233.25,0.113522
1245.31,0
1257.36,0.0703276
1269.41,0.192248
1281.47,0.368912
1293.52,0.585835
1305.57,0.680674
1317.62,0.671752
1329.68,0.652143
1341.73,0.666287
1353.78,0.644994
1365.84,0.516085
1377.89,0.388576
1389.94,0.550145
1402,0.693398
1414.05,0.649164
1426.1,0.6139
1438.15,0.584948
1450.21,0.629685
1462.26,0.708893
1474.31,0.799132
1486.37,0.854261
1498.42,0.887584
1510.47,0.921969
1522.52,0.922016
1534.58,0.930506
1546.63,0.930153
1558.68,0.928144
1570.74,0.923226
1582.79,0.920426
1594.84,0.918236
1606.89,0.91001
1618.95,0.890374
1631,0.893822
1643.05,0.870007
1655.11,0.846198
1667.16,0.829798
1679.21,0.82189
1691.27,0.794317
1703.32,0.668794
1715.37,0.426521
1727.42,0.348697
1739.48,0.297551
1751.53,0.466909
1763.58,0.843747
1775.64,0.949965
1787.69,0.962378
1799.74,0.967066
1811.79,0.970008
1823.85,0.970931
1835.9,0.970549
1847.95,0.970951
1860.01,0.971382
1872.06,0.970487
1884.11,0.969934
1896.16,0.970099
1908.22,0.969233
1920.27,0.973043
1932.32,0.973577
1944.38,0.970134
1956.43,0.97546
1968.48,0.978808
1980.54,0.994714
1992.59,0.979161
2004.64,0.990304
2016.69,0.988354
2028.75,0.985945
2040.8,0.983539
2052.85,0.983747
2064.91,0.973275
2076.96,0.973418
2089.01,0.971907
2101.06,0.974803
2113.12,0.98191
2125.17,0.978327
2137.22,0.983128
2149.28,0.985775
2161.33,0.984401
2173.38,0.989489
2185.43,0.97799
2197.49,0.973107
2209.54,0.96927
2221.59,0.972358
2233.65,0.977956
2245.7,0.97251
2257.75,0.968932
2269.81,0.969406
2281.86,0.971777
2293.91,0.968929
2305.96,0.967195
2318.02,0.970755
2330.07,0.968526
2342.12,0.965819
2354.18,0.963403
2366.23,0.95976
2378.28,0.957607
2390.33,0.960077
2402.39,0.963823
2414.44,0.962955
2426.49,0.964707
2438.55,0.965593
2450.6,0.96591
2462.65,0.965236
2474.7,0.963275
2486.76,0.962262
2498.81,0.959017
2510.86,0.960773
2522.92,0.961353
2534.97,0.959284
2547.02,0.960098
2559.08,0.959738
2571.13,0.959016
2583.18,0.95968
2595.23,0.956486
2607.29,0.954117
2619.34,0.950491
2631.39,0.947546
2643.45,0.942292
2655.5,0.941679
2667.55,0.939847
2679.6,0.937603
2691.66,0.936649
2703.71,0.935609
2715.76,0.935327
2727.82,0.933749
2739.87,0.929805
2751.92,0.928301
2763.97,0.925226
2776.03,0.923221
2788.08,0.920817
2800.13,0.917289
2812.19,0.912173
2824.24,0.90261
2836.29,0.88901
2848.35,0.875867
2860.4,0.85978
2872.45,0.848231
2884.5,0.842078
2896.56,0.828759
2908.61,0.795189
2920.66,0.729977
2932.72,0.701378
2944.77,0.71033
2956.82,0.710408
2968.87,0.758765
2980.93,0.832141
2992.98,0.867332
3005.03,0.887029
3017.09,0.901715
3029.14,0.906483
3041.19,0.898161
3053.24,0.895942
3065.3,0.890551
3077.35,0.87832
3089.4,0.869861
3101.46,0.85756
3113.51,0.846242
3125.56,0.831827
3137.62,0.817411
3149.67,0.799049
3161.72,0.782088
3173.77,0.76223
3185.83,0.744947
3197.88,0.723805
3209.93,0.704123
3221.99,0.684056
3234.04,0.665429
3246.09,0.651484
3258.14,0.636173
3270.2,0.62567
3282.25,0.614686
3294.3,0.608451
3306.36,0.602911
3318.41,0.600655
3330.46,0.595475
3342.51,0.596481
3354.57,0.600074
3366.62,0.599872
3378.67,0.606476
3390.73,0.615033
3402.78,0.624447
3414.83,0.635889
3426.89,0.65274
3438.94,0.666158
3450.99,0.685962
3463.04,0.705603
3475.1,0.720732
3487.15,0.743308
3499.2,0.761598
3511.26,0.784231
3523.31,0.802369
3535.36,0.825096
3547.41,0.840052
3559.47,0.861305
3571.52,0.881058
3583.57,0.901762
3595.63,0.91542
3607.68,0.928092
3619.73,0.943446
3631.78,0.95094
3643.84,0.961103
3655.89,0.973054
3667.94,0.975616
3680,0.982655
3692.05,0.989871
3704.1,0.990895
3716.16,0.995947
3728.21,0.994952
3740.26,0.996418
3752.31,0.997981
3764.37,0.992384
3776.42,0.99391
3788.47,0.99297
3800.53,0.990698
3812.58,0.9957
3824.63,0.99787
3836.68,0.995058
3848.74,0.996968
3860.79,0.997591
3872.84,0.993916
3884.9,0.995766
3896.95,0.995433
3909,0.991908
3921.05,0.996756
3933.11,0.992866
3945.16,0.991779
3957.21,0.992546
3969.27,0.992623
3981.32,0.989779
3993.37,0.993053
4000.12,0.993257